Time,FZ,C3,CZ,C4,PZ,PO7,OZ,PO8,AccX,AccY,AccZ,Gyro1,Gyro2,Gyro3,Battery,Counter,Validation
14953.3908355,294956.40625,294871.75,326028.375,319224.84375,285190.75,255659.890625,221452.25,245643.265625,0.02587890625,0.990966796875,0.068603515625,0.2136230319738388,-0.7934569716453552,-1.4038084745407104,73.33333587646484,205213.0,1.0
14953.4399522,294970.34375,295193.0625,326241.53125,319210.65625,285336.40625,255715.328125,221505.0,245645.328125,0.024658203125,0.990234375,0.068359375,0.0610351525247097,-0.7019042372703552,-1.3427733182907104,73.33333587646484,205214.0,1.0
14953.4399649,294943.875,295230.4375,326239.28125,319170.21875,285350.78125,255711.125,221491.578125,245623.6875,0.02392578125,0.989990234375,0.06591796875,0.0,-0.6103515028953552,-1.4038084745407104,73.33333587646484,205215.0,1.0
14953.4399663,294904.0,294915.90625,326014.59375,319149.21875,285200.3125,255634.765625,221416.84375,245599.28125,0.023681640625,0.98974609375,0.06787109375,0.1220703050494194,-0.5798339247703552,-1.4953612089157104,73.33333587646484,205216.0,1.0
14953.4399675,294904.09375,294666.8125,325854.5625,319176.3125,285077.46875,255585.6875,221380.453125,245608.40625,0.023193359375,0.98828125,0.06494140625,0.2136230319738388,-0.5798339247703552,-1.5563963651657104,73.33333587646484,205217.0,1.0
14953.4399687,294941.125,294842.84375,326000.125,319209.21875,285165.53125,255630.921875,221433.921875,245633.53125,0.021728515625,0.988037109375,0.063720703125,0.2136230319738388,-0.5187987685203552,-1.5869139432907104,73.33333587646484,205218.0,1.0
14953.43997,294964.4375,295181.96875,326234.71875,319205.90625,285332.71875,255703.609375,221501.953125,245643.984375,0.0205078125,0.9892578125,0.0634765625,0.2441406100988388,-0.5493163466453552,-1.5563963651657104,73.33333587646484,205219.0,1.0
14953.4399712,294939.40625,295218.8125,326230.0625,319169.4375,285346.0625,255696.640625,221487.015625,245622.890625,0.02001953125,0.9873046875,0.06591796875,0.2746581733226776,-0.6103515028953552,-1.5563963651657104,73.33333587646484,205220.0,1.0
14953.4420303,294901.40625,294904.28125,326000.375,319149.75,285191.65625,255626.71875,221406.828125,245601.0625,0.018310546875,0.9892578125,0.069580078125,0.2136230319738388,-0.7324218153953552,-1.4648436307907104,73.33333587646484,205221.0,1.0
14953.4420336,294922.78125,294689.09375,325873.34375,319195.71875,285100.8125,255607.3125,221394.3125,245627.09375,0.015625,0.990478515625,0.06689453125,0.1220703050494194,-0.8239745497703552,-1.4343260526657104,73.33333587646484,205222.0,1.0
14953.4420366,294922.78125,294689.09375,325873.34375,319195.71875,285100.8125,255607.3125,221394.3125,245627.09375,0.015625,0.990478515625,0.06689453125,0.1220703050494194,-0.8239745497703552,-1.4343260526657104,73.33333587646484,205223.0,0.0
14953.4420368,294922.78125,294689.09375,325873.34375,319195.71875,285100.8125,255607.3125,221394.3125,245627.09375,0.015625,0.990478515625,0.06689453125,0.1220703050494194,-0.8239745497703552,-1.4343260526657104,73.33333587646484,205224.0,0.0
14953.442037,294922.78125,294689.09375,325873.34375,319195.71875,285100.8125,255607.3125,221394.3125,245627.09375,0.015625,0.990478515625,0.06689453125,0.1220703050494194,-0.8239745497703552,-1.4343260526657104,73.33333587646484,205225.0,0.0
14953.4420372,294922.78125,294689.09375,325873.34375,319195.71875,285100.8125,255607.3125,221394.3125,245627.09375,0.015625,0.990478515625,0.06689453125,0.1220703050494194,-0.8239745497703552,-1.4343260526657104,73.33333587646484,205226.0,0.0
14953.4420375,294922.78125,294689.09375,325873.34375,319195.71875,285100.8125,255607.3125,221394.3125,245627.09375,0.015625,0.990478515625,0.06689453125,0.1220703050494194,-0.8239745497703552,-1.4343260526657104,73.33333587646484,205227.0,0.0
14953.4420376,294922.78125,294689.09375,325873.34375,319195.71875,285100.8125,255607.3125,221394.3125,245627.09375,0.015625,0.990478515625,0.06689453125,0.1220703050494194,-0.8239745497703552,-1.4343260526657104,73.33333587646484,205228.0,0.0
14953.4420378,294922.78125,294689.09375,325873.34375,319195.71875,285100.8125,255607.3125,221394.3125,245627.09375,0.015625,0.990478515625,0.06689453125,0.1220703050494194,-0.8239745497703552,-1.4343260526657104,73.33333587646484,205229.0,0.0
14953.442038,294922.78125,294689.09375,325873.34375,319195.71875,285100.8125,255607.3125,221394.3125,245627.09375,0.015625,0.990478515625,0.06689453125,0.1220703050494194,-0.8239745497703552,-1.4343260526657104,73.33333587646484,205230.0,0.0
14953.4420382,294922.78125,294689.09375,325873.34375,319195.71875,285100.8125,255607.3125,221394.3125,245627.09375,0.015625,0.990478515625,0.06689453125,0.1220703050494194,-0.8239745497703552,-1.4343260526657104,73.33333587646484,205231.0,0.0
14953.4420383,294922.78125,294689.09375,325873.34375,319195.71875,285100.8125,255607.3125,221394.3125,245627.09375,0.015625,0.990478515625,0.06689453125,0.1220703050494194,-0.8239745497703552,-1.4343260526657104,73.33333587646484,205232.0,0.0
14953.4420385,294922.78125,294689.09375,325873.34375,319195.71875,285100.8125,255607.3125,221394.3125,245627.09375,0.015625,0.990478515625,0.06689453125,0.1220703050494194,-0.8239745497703552,-1.4343260526657104,73.33333587646484,205233.0,0.0
14953.4420387,294922.78125,294689.09375,325873.34375,319195.71875,285100.8125,255607.3125,221394.3125,245627.09375,0.015625,0.990478515625,0.06689453125,0.1220703050494194,-0.8239745497703552,-1.4343260526657104,73.33333587646484,205234.0,0.0
14953.4420389,294922.78125,294689.09375,325873.34375,319195.71875,285100.8125,255607.3125,221394.3125,245627.09375,0.015625,0.990478515625,0.06689453125,0.1220703050494194,-0.8239745497703552,-1.4343260526657104,73.33333587646484,205235.0,0.0
14953.442039,294922.78125,294689.09375,325873.34375,319195.71875,285100.8125,255607.3125,221394.3125,245627.09375,0.015625,0.990478515625,0.06689453125,0.1220703050494194,-0.8239745497703552,-1.4343260526657104,73.33333587646484,205236.0,0.0
14953.4420392,294922.78125,294689.09375,325873.34375,319195.71875,285100.8125,255607.3125,221394.3125,245627.09375,0.015625,0.990478515625,0.06689453125,0.1220703050494194,-0.8239745497703552,-1.4343260526657104,73.33333587646484,205237.0,0.0
14953.4420394,294922.78125,294689.09375,325873.34375,319195.71875,285100.8125,255607.3125,221394.3125,245627.09375,0.015625,0.990478515625,0.06689453125,0.1220703050494194,-0.8239745497703552,-1.4343260526657104,73.33333587646484,205238.0,0.0
14953.4420396,294922.78125,294689.09375,325873.34375,319195.71875,285100.8125,255607.3125,221394.3125,245627.09375,0.015625,0.990478515625,0.06689453125,0.1220703050494194,-0.8239745497703552,-1.4343260526657104,73.33333587646484,205239.0,0.0
14953.4420397,294922.78125,294689.09375,325873.34375,319195.71875,285100.8125,255607.3125,221394.3125,245627.09375,0.015625,0.990478515625,0.06689453125,0.1220703050494194,-0.8239745497703552,-1.4343260526657104,73.33333587646484,205240.0,0.0
14953.4420399,294922.78125,294689.09375,325873.34375,319195.71875,285100.8125,255607.3125,221394.3125,245627.09375,0.015625,0.990478515625,0.06689453125,0.1220703050494194,-0.8239745497703552,-1.4343260526657104,73.33333587646484,205241.0,0.0
14953.4420401,294922.78125,294689.09375,325873.34375,319195.71875,285100.8125,255607.3125,221394.3125,245627.09375,0.015625,0.990478515625,0.06689453125,0.1220703050494194,-0.8239745497703552,-1.4343260526657104,73.33333587646484,205242.0,0.0
14953.4420402,294922.78125,294689.09375,325873.34375,319195.71875,285100.8125,255607.3125,221394.3125,245627.09375,0.015625,0.990478515625,0.06689453125,0.1220703050494194,-0.8239745497703552,-1.4343260526657104,73.33333587646484,205243.0,0.0
14953.4420404,294922.78125,294689.09375,325873.34375,319195.71875,285100.8125,255607.3125,221394.3125,245627.09375,0.015625,0.990478515625,0.06689453125,0.1220703050494194,-0.8239745497703552,-1.4343260526657104,73.33333587646484,205244.0,0.0
14953.4420406,294922.78125,294689.09375,325873.34375,319195.71875,285100.8125,255607.3125,221394.3125,245627.09375,0.015625,0.990478515625,0.06689453125,0.1220703050494194,-0.8239745497703552,-1.4343260526657104,73.33333587646484,205245.0,0.0
14953.4420407,294922.78125,294689.09375,325873.34375,319195.71875,285100.8125,255607.3125,221394.3125,245627.09375,0.015625,0.990478515625,0.06689453125,0.1220703050494194,-0.8239745497703552,-1.4343260526657104,73.33333587646484,205246.0,0.0
14953.4420409,294922.78125,294689.09375,325873.34375,319195.71875,285100.8125,255607.3125,221394.3125,245627.09375,0.015625,0.990478515625,0.06689453125,0.1220703050494194,-0.8239745497703552,-1.4343260526657104,73.33333587646484,205247.0,0.0
14953.4420411,294922.78125,294689.09375,325873.34375,319195.71875,285100.8125,255607.3125,221394.3125,245627.09375,0.015625,0.990478515625,0.06689453125,0.1220703050494194,-0.8239745497703552,-1.4343260526657104,73.33333587646484,205248.0,0.0
14953.4420413,294922.78125,294689.09375,325873.34375,319195.71875,285100.8125,255607.3125,221394.3125,245627.09375,0.015625,0.990478515625,0.06689453125,0.1220703050494194,-0.8239745497703552,-1.4343260526657104,73.33333587646484,205249.0,0.0
14953.4420414,294922.78125,294689.09375,325873.34375,319195.71875,285100.8125,255607.3125,221394.3125,245627.09375,0.015625,0.990478515625,0.06689453125,0.1220703050494194,-0.8239745497703552,-1.4343260526657104,73.33333587646484,205250.0,0.0
14953.4420416,294922.78125,294689.09375,325873.34375,319195.71875,285100.8125,255607.3125,221394.3125,245627.09375,0.015625,0.990478515625,0.06689453125,0.1220703050494194,-0.8239745497703552,-1.4343260526657104,73.33333587646484,205251.0,0.0
14953.4420418,294922.78125,294689.09375,325873.34375,319195.71875,285100.8125,255607.3125,221394.3125,245627.09375,0.015625,0.990478515625,0.06689453125,0.1220703050494194,-0.8239745497703552,-1.4343260526657104,73.33333587646484,205252.0,0.0
14953.442042,294922.78125,294689.09375,325873.34375,319195.71875,285100.8125,255607.3125,221394.3125,245627.09375,0.015625,0.990478515625,0.06689453125,0.1220703050494194,-0.8239745497703552,-1.4343260526657104,73.33333587646484,205253.0,0.0
14953.4420421,294922.78125,294689.09375,325873.34375,319195.71875,285100.8125,255607.3125,221394.3125,245627.09375,0.015625,0.990478515625,0.06689453125,0.1220703050494194,-0.8239745497703552,-1.4343260526657104,73.33333587646484,205254.0,0.0
14953.4420423,294922.78125,294689.09375,325873.34375,319195.71875,285100.8125,255607.3125,221394.3125,245627.09375,0.015625,0.990478515625,0.06689453125,0.1220703050494194,-0.8239745497703552,-1.4343260526657104,73.33333587646484,205255.0,0.0
14953.4420425,294922.78125,294689.09375,325873.34375,319195.71875,285100.8125,255607.3125,221394.3125,245627.09375,0.015625,0.990478515625,0.06689453125,0.1220703050494194,-0.8239745497703552,-1.4343260526657104,73.33333587646484,205256.0,0.0
14953.442043,294922.78125,294689.09375,325873.34375,319195.71875,285100.8125,255607.3125,221394.3125,245627.09375,0.015625,0.990478515625,0.06689453125,0.1220703050494194,-0.8239745497703552,-1.4343260526657104,73.33333587646484,205257.0,0.0
14953.4420431,294922.78125,294689.09375,325873.34375,319195.71875,285100.8125,255607.3125,221394.3125,245627.09375,0.015625,0.990478515625,0.06689453125,0.1220703050494194,-0.8239745497703552,-1.4343260526657104,73.33333587646484,205258.0,0.0
14953.4420433,294964.4375,295186.375,326239.0,319207.15625,285350.25,255723.546875,221510.53125,245646.484375,0.032470703125,0.98779296875,0.06494140625,-1.1291502714157104,-0.3356933295726776,-1.4343260526657104,73.33333587646484,205259.0,1.0
14953.4420447,294925.28125,295192.71875,326207.53125,319155.5625,285340.0625,255692.53125,221476.65625,245618.765625,0.029296875,0.98779296875,0.0625,-0.9460448622703552,-0.1220703050494194,-1.4648436307907104,73.33333587646484,205260.0,1.0
14953.4670308,294901.59375,294893.5625,325988.59375,319150.5625,285200.5,255634.046875,221417.109375,245614.921875,0.028076171875,0.987060546875,0.06640625,-0.7629393935203552,0.0610351525247097,-1.6479490995407104,73.33333587646484,205261.0,1.0
14953.4670382,294921.8125,294693.09375,325870.65625,319195.0,285115.1875,255618.9375,221403.875,245633.96875,0.024658203125,0.986572265625,0.072998046875,-0.6713866591453552,0.1220703050494194,-1.6479490995407104,73.33333587646484,205262.0,1.0
14953.4959754,294962.40625,294891.125,326042.9375,319231.375,285222.65625,255677.0625,221468.34375,245658.921875,0.02294921875,0.98876953125,0.06689453125,-0.5798339247703552,0.3051757514476776,-1.5563963651657104,73.33333587646484,205263.0,1.0
14953.5245096,294977.3125,295220.34375,326273.625,319221.46875,285382.71875,255740.71875,221525.015625,245663.125,0.021728515625,0.988525390625,0.068603515625,-0.5493163466453552,0.3051757514476776,-1.5258787870407104,73.33333587646484,205264.0,1.0
14953.5245185,294941.75,295229.375,326247.0625,319168.25,285372.59375,255705.21875,221485.0625,245626.375,0.019775390625,0.990234375,0.068359375,-0.3967284858226776,0.3051757514476776,-1.5563963651657104,73.33333587646484,205265.0,1.0
14953.5245199,294906.15625,294915.09375,326010.40625,319151.09375,285216.59375,255641.5625,221416.390625,245612.875,0.017578125,0.991455078125,0.074462890625,-0.2746581733226776,0.2441406100988388,-1.6174315214157104,73.33333587646484,205266.0,1.0
14953.5245212,294914.28125,294697.21875,325874.875,319186.3125,285113.40625,255613.9375,221396.71875,245625.296875,0.01513671875,0.990966796875,0.07177734375,-0.1525878757238388,0.0610351525247097,-1.6784666776657104,73.33333587646484,205267.0,1.0
14953.5245238,294956.84375,294886.40625,326031.59375,319218.25,285207.8125,255663.203125,221451.703125,245642.90625,0.01318359375,0.990966796875,0.0703125,-0.1831054538488388,-0.0915527269244194,-1.6479490995407104,73.33333587646484,205268.0,1.0
14953.524525,294976.0625,295209.875,326252.78125,319208.59375,285363.5625,255725.0625,221508.03125,245648.453125,0.01220703125,0.9912109375,0.068359375,-0.0610351525247097,-0.1831054538488388,-1.5258787870407104,73.33333587646484,205269.0,1.0
14953.5493082,294953.71875,295237.21875,326245.09375,319172.65625,285373.21875,255721.5,221493.1875,245632.265625,0.013916015625,0.99169921875,0.069580078125,0.03051757626235485,-0.3356933295726776,-1.5869139432907104,73.33333587646484,205270.0,1.0
14953.5493139,294916.4375,294915.09375,326002.0,319153.6875,285209.4375,255645.5,221418.171875,245612.0625,0.01416015625,0.991943359375,0.0712890625,0.0,-0.5493163466453552,-1.4648436307907104,73.33333587646484,205271.0,1.0
14953.5493152,294927.625,294695.59375,325870.375,319190.09375,285107.78125,255606.34375,221389.03125,245622.703125,0.01416015625,0.99267578125,0.0712890625,0.2136230319738388,-0.5798339247703552,-1.4343260526657104,73.33333587646484,205272.0,1.0
14953.5493164,294968.9375,294895.875,326048.125,319230.40625,285218.65625,255657.65625,221448.9375,245647.03125,0.013427734375,0.9921875,0.072509765625,0.2441406100988388,-0.7629393935203552,-1.3427733182907104,73.33333587646484,205273.0,1.0
14953.5493176,294978.65625,295207.0,326258.25,319213.15625,285363.125,255710.140625,221498.46875,245641.296875,0.01513671875,0.991455078125,0.07373046875,0.3356933295726776,-1.0375975370407104,-1.3122557401657104,73.33333587646484,205274.0,1.0
14953.572842,294948.28125,295223.65625,326228.90625,319169.59375,285356.78125,255699.140625,221476.921875,245619.84375,0.0146484375,0.990234375,0.07373046875,0.3967284858226776,-1.1596678495407104,-1.2512205839157104,73.33333587646484,205275.0,1.0
14953.5728483,294948.28125,295223.65625,326228.90625,319169.59375,285356.78125,255699.140625,221476.921875,245619.84375,0.0146484375,0.990234375,0.07373046875,0.3967284858226776,-1.1596678495407104,-1.2512205839157104,73.33333587646484,205276.0,0.0
14953.5728485,294948.28125,295223.65625,326228.90625,319169.59375,285356.78125,255699.140625,221476.921875,245619.84375,0.0146484375,0.990234375,0.07373046875,0.3967284858226776,-1.1596678495407104,-1.2512205839157104,73.33333587646484,205277.0,0.0
14953.5728487,294948.28125,295223.65625,326228.90625,319169.59375,285356.78125,255699.140625,221476.921875,245619.84375,0.0146484375,0.990234375,0.07373046875,0.3967284858226776,-1.1596678495407104,-1.2512205839157104,73.33333587646484,205278.0,0.0
14953.5728489,294948.28125,295223.65625,326228.90625,319169.59375,285356.78125,255699.140625,221476.921875,245619.84375,0.0146484375,0.990234375,0.07373046875,0.3967284858226776,-1.1596678495407104,-1.2512205839157104,73.33333587646484,205279.0,0.0
14953.5728491,294948.28125,295223.65625,326228.90625,319169.59375,285356.78125,255699.140625,221476.921875,245619.84375,0.0146484375,0.990234375,0.07373046875,0.3967284858226776,-1.1596678495407104,-1.2512205839157104,73.33333587646484,205280.0,0.0
14953.5728493,294948.28125,295223.65625,326228.90625,319169.59375,285356.78125,255699.140625,221476.921875,245619.84375,0.0146484375,0.990234375,0.07373046875,0.3967284858226776,-1.1596678495407104,-1.2512205839157104,73.33333587646484,205281.0,0.0
14953.5728494,294948.28125,295223.65625,326228.90625,319169.59375,285356.78125,255699.140625,221476.921875,245619.84375,0.0146484375,0.990234375,0.07373046875,0.3967284858226776,-1.1596678495407104,-1.2512205839157104,73.33333587646484,205282.0,0.0
14953.5728496,294948.28125,295223.65625,326228.90625,319169.59375,285356.78125,255699.140625,221476.921875,245619.84375,0.0146484375,0.990234375,0.07373046875,0.3967284858226776,-1.1596678495407104,-1.2512205839157104,73.33333587646484,205283.0,0.0
14953.5728498,294948.28125,295223.65625,326228.90625,319169.59375,285356.78125,255699.140625,221476.921875,245619.84375,0.0146484375,0.990234375,0.07373046875,0.3967284858226776,-1.1596678495407104,-1.2512205839157104,73.33333587646484,205284.0,0.0
14953.57285,294948.28125,295223.65625,326228.90625,319169.59375,285356.78125,255699.140625,221476.921875,245619.84375,0.0146484375,0.990234375,0.07373046875,0.3967284858226776,-1.1596678495407104,-1.2512205839157104,73.33333587646484,205285.0,0.0
14953.5728501,294948.28125,295223.65625,326228.90625,319169.59375,285356.78125,255699.140625,221476.921875,245619.84375,0.0146484375,0.990234375,0.07373046875,0.3967284858226776,-1.1596678495407104,-1.2512205839157104,73.33333587646484,205286.0,0.0
14953.5728503,294910.375,294712.59375,325880.3125,319187.75,285122.71875,255604.90625,221391.265625,245621.8125,0.024169921875,0.99072265625,0.071533203125,1.2817381620407104,-1.4953612089157104,-0.7324218153953552,73.33333587646484,205287.0,1.0
14953.5977492,294947.90625,294882.375,326029.71875,319221.1875,285210.875,255657.5625,221450.015625,245643.359375,0.0244140625,0.989013671875,0.069580078125,1.3122557401657104,-1.4648436307907104,-0.7019042372703552,73.33333587646484,205288.0,1.0
14953.623386,294961.78125,295194.9375,326237.0625,319206.25,285353.75,255720.78125,221503.828125,245644.609375,0.02294921875,0.98828125,0.067138671875,1.3427733182907104,-1.3732908964157104,-0.7019042372703552,73.33333587646484,205289.0,1.0
14953.6233929,294936.90625,295228.46875,326224.53125,319168.4375,285361.96875,255715.140625,221489.171875,245630.3125,0.0244140625,0.987548828125,0.06640625,1.3427733182907104,-1.3732908964157104,-0.7324218153953552,73.33333587646484,205290.0,1.0
14953.647699,294896.3125,294916.1875,325991.96875,319148.3125,285206.3125,255638.4375,221411.390625,245612.6875,0.02490234375,0.985595703125,0.06689453125,1.5258787870407104,-1.2817381620407104,-0.9155272841453552,73.33333587646484,205291.0,1.0
14953.6726925,294900.71875,294693.5625,325859.21875,319178.28125,285102.15625,255601.421875,221383.484375,245616.171875,0.02685546875,0.987060546875,0.072509765625,1.7089842557907104,-1.1596678495407104,-0.9155272841453552,73.33333587646484,205292.0,1.0
14953.6864552,294948.625,294892.46875,326035.25,319223.0625,285212.125,255660.515625,221446.25,245643.8125,0.025146484375,0.98779296875,0.06884765625,1.6479490995407104,-1.0070799589157104,-1.0681151151657104,73.33333587646484,205293.0,1.0
14953.6890332,294957.3125,295206.65625,326248.03125,319208.9375,285360.71875,255711.03125,221494.984375,245640.40625,0.025634765625,0.988525390625,0.0693359375,1.6479490995407104,-0.9765624403953552,-1.1596678495407104,73.33333587646484,205294.0,1.0
14953.6920623,294924.9375,295223.5625,326223.375,319163.34375,285358.375,255694.40625,221473.515625,245618.0625,0.026123046875,0.9892578125,0.071533203125,1.6479490995407104,-0.9155272841453552,-1.1291502714157104,73.33333587646484,205295.0,1.0
14953.6920677,294893.8125,294920.5625,326008.6875,319148.59375,285217.03125,255628.953125,221406.46875,245602.234375,0.025634765625,0.989013671875,0.071044921875,1.6784666776657104,-0.8239745497703552,-1.1901854276657104,73.33333587646484,205296.0,1.0
14953.6964812,294911.0625,294695.53125,325876.375,319189.71875,285117.96875,255603.75,221386.703125,245621.1875,0.024658203125,0.988525390625,0.06982421875,1.6479490995407104,-0.7934569716453552,-1.2512205839157104,73.33333587646484,205297.0,1.0
14953.701477,294944.59375,294865.46875,326017.46875,319219.75,285201.46875,255645.3125,221440.703125,245645.234375,0.023193359375,0.987060546875,0.068359375,1.7089842557907104,-0.7629393935203552,-1.2512205839157104,73.33333587646484,205298.0,1.0
14953.7070458,294957.84375,295191.28125,326233.65625,319204.03125,285348.90625,255700.578125,221489.078125,245640.59375,0.02392578125,0.98779296875,0.0673828125,1.6479490995407104,-0.6713866591453552,-1.2512205839157104,73.33333587646484,205299.0,1.0
14953.7070513,294927.53125,295217.21875,326223.375,319162.71875,285353.03125,255695.5625,221470.84375,245618.328125,0.023681640625,0.98828125,0.0673828125,1.6479490995407104,-0.6103515028953552,-1.3122557401657104,73.33333587646484,205300.0,1.0
14953.7070526,294896.78125,294910.90625,326000.5625,319147.53125,285205.0625,255633.15625,221402.890625,245601.25,0.0234375,0.988525390625,0.069580078125,1.7395018339157104,-0.5798339247703552,-1.2817381620407104,73.33333587646484,205301.0,1.0
14953.7070538,294905.0,294685.78125,325862.96875,319175.3125,285099.1875,255586.671875,221365.609375,245603.125,0.025390625,0.987548828125,0.068603515625,1.8005369901657104,-0.5493163466453552,-1.3122557401657104,73.33333587646484,205302.0,1.0
14953.7070551,294952.375,294881.9375,326029.25,319216.46875,285203.96875,255639.6875,221426.3125,245633.875,0.02587890625,0.986328125,0.06298828125,1.7089842557907104,-0.5187987685203552,-1.2512205839157104,73.33333587646484,205303.0,1.0
14953.7070564,294962.65625,295194.84375,326236.78125,319199.28125,285346.5,255695.296875,221476.5625,245633.53125,0.0224609375,0.98828125,0.0634765625,1.6784666776657104,-0.5493163466453552,-1.1901854276657104,73.33333587646484,205304.0,1.0
14953.7336907,294938.53125,295222.21875,326225.15625,319163.53125,285354.53125,255699.765625,221466.546875,245619.125,0.021240234375,0.9892578125,0.064208984375,1.7700194120407104,-0.4882812201976776,-1.0986326932907104,73.33333587646484,205305.0,1.0
14953.7336963,294905.25,294915.625,326005.65625,319151.71875,285209.0625,255637.265625,221398.953125,245600.359375,0.020263671875,0.989013671875,0.06640625,1.8005369901657104,-0.5187987685203552,-1.1901854276657104,73.33333587646484,205306.0,1.0
14953.7336977,294911.875,294695.78125,325874.875,319183.0,285110.375,255597.65625,221372.671875,245608.21875,0.01953125,0.990234375,0.06640625,1.6784666776657104,-0.6408690810203552,-1.1291502714157104,73.33333587646484,205307.0,1.0
14953.7336989,294952.90625,294891.3125,326044.09375,319220.03125,285215.875,255651.125,221434.984375,245635.578125,0.0205078125,0.990966796875,0.065673828125,1.6479490995407104,-0.7019042372703552,-1.1291502714157104,73.33333587646484,205308.0,1.0
14953.7337001,294969.625,295211.9375,326260.65625,319209.03125,285366.625,255712.375,221489.890625,245637.28125,0.02099609375,0.99267578125,0.064453125,1.5258787870407104,-0.9765624403953552,-1.1291502714157104,73.33333587646484,205309.0,1.0
14953.7337014,294932.96875,295218.1875,326224.09375,319162.375,285355.0,255697.625,221462.25,245612.328125,0.017333984375,0.99267578125,0.06689453125,1.4648436307907104,-0.9765624403953552,-1.1596678495407104,73.33333587646484,205310.0,1.0
14953.7337026,294892.9375,294893.375,325980.625,319142.34375,285192.96875,255615.90625,221381.609375,245594.359375,0.017578125,0.9921875,0.06640625,1.3732908964157104,-1.1291502714157104,-1.0986326932907104,73.33333587646484,205311.0,1.0
14953.733704,294902.84375,294680.59375,325851.625,319176.03125,285096.0625,255585.328125,221358.09375,245608.3125,0.016845703125,0.99169921875,0.067138671875,1.1901854276657104,-1.1291502714157104,-1.0681151151657104,73.33333587646484,205312.0,1.0
14953.7608071,294938.875,294868.53125,326010.65625,319203.59375,285190.40625,255632.265625,221406.46875,245616.171875,0.016357421875,0.99072265625,0.06787109375,1.1291502714157104,-1.3732908964157104,-1.0986326932907104,73.33333587646484,205313.0,1.0
14953.7608146,294938.875,294868.53125,326010.65625,319203.59375,285190.40625,255632.265625,221406.46875,245616.171875,0.016357421875,0.99072265625,0.06787109375,1.1291502714157104,-1.3732908964157104,-1.0986326932907104,73.33333587646484,205314.0,0.0
14953.7608149,294938.875,294868.53125,326010.65625,319203.59375,285190.40625,255632.265625,221406.46875,245616.171875,0.016357421875,0.99072265625,0.06787109375,1.1291502714157104,-1.3732908964157104,-1.0986326932907104,73.33333587646484,205315.0,0.0
14953.7608151,294938.875,294868.53125,326010.65625,319203.59375,285190.40625,255632.265625,221406.46875,245616.171875,0.016357421875,0.99072265625,0.06787109375,1.1291502714157104,-1.3732908964157104,-1.0986326932907104,73.33333587646484,205316.0,0.0
14953.7608152,294938.875,294868.53125,326010.65625,319203.59375,285190.40625,255632.265625,221406.46875,245616.171875,0.016357421875,0.99072265625,0.06787109375,1.1291502714157104,-1.3732908964157104,-1.0986326932907104,73.33333587646484,205317.0,0.0
14953.7608154,294938.875,294868.53125,326010.65625,319203.59375,285190.40625,255632.265625,221406.46875,245616.171875,0.016357421875,0.99072265625,0.06787109375,1.1291502714157104,-1.3732908964157104,-1.0986326932907104,73.33333587646484,205318.0,0.0
14953.7608156,294938.875,294868.53125,326010.65625,319203.59375,285190.40625,255632.265625,221406.46875,245616.171875,0.016357421875,0.99072265625,0.06787109375,1.1291502714157104,-1.3732908964157104,-1.0986326932907104,73.33333587646484,205319.0,0.0
14953.7608158,294938.875,294868.53125,326010.65625,319203.59375,285190.40625,255632.265625,221406.46875,245616.171875,0.016357421875,0.99072265625,0.06787109375,1.1291502714157104,-1.3732908964157104,-1.0986326932907104,73.33333587646484,205320.0,0.0
14953.760816,294938.875,294868.53125,326010.65625,319203.59375,285190.40625,255632.265625,221406.46875,245616.171875,0.016357421875,0.99072265625,0.06787109375,1.1291502714157104,-1.3732908964157104,-1.0986326932907104,73.33333587646484,205321.0,0.0
14953.7608162,294938.875,294868.53125,326010.65625,319203.59375,285190.40625,255632.265625,221406.46875,245616.171875,0.016357421875,0.99072265625,0.06787109375,1.1291502714157104,-1.3732908964157104,-1.0986326932907104,73.33333587646484,205322.0,0.0
14953.7608164,294938.875,294868.53125,326010.65625,319203.59375,285190.40625,255632.265625,221406.46875,245616.171875,0.016357421875,0.99072265625,0.06787109375,1.1291502714157104,-1.3732908964157104,-1.0986326932907104,73.33333587646484,205323.0,0.0
14953.7608165,294938.875,294868.53125,326010.65625,319203.59375,285190.40625,255632.265625,221406.46875,245616.171875,0.016357421875,0.99072265625,0.06787109375,1.1291502714157104,-1.3732908964157104,-1.0986326932907104,73.33333587646484,205324.0,0.0
14953.7608167,294938.875,294868.53125,326010.65625,319203.59375,285190.40625,255632.265625,221406.46875,245616.171875,0.016357421875,0.99072265625,0.06787109375,1.1291502714157104,-1.3732908964157104,-1.0986326932907104,73.33333587646484,205325.0,0.0
14953.7608169,294938.875,294868.53125,326010.65625,319203.59375,285190.40625,255632.265625,221406.46875,245616.171875,0.016357421875,0.99072265625,0.06787109375,1.1291502714157104,-1.3732908964157104,-1.0986326932907104,73.33333587646484,205326.0,0.0
14953.7608171,294938.875,294868.53125,326010.65625,319203.59375,285190.40625,255632.265625,221406.46875,245616.171875,0.016357421875,0.99072265625,0.06787109375,1.1291502714157104,-1.3732908964157104,-1.0986326932907104,73.33333587646484,205327.0,0.0
14953.7608173,294938.875,294868.53125,326010.65625,319203.59375,285190.40625,255632.265625,221406.46875,245616.171875,0.016357421875,0.99072265625,0.06787109375,1.1291502714157104,-1.3732908964157104,-1.0986326932907104,73.33333587646484,205328.0,0.0
14953.7608174,294938.875,294868.53125,326010.65625,319203.59375,285190.40625,255632.265625,221406.46875,245616.171875,0.016357421875,0.99072265625,0.06787109375,1.1291502714157104,-1.3732908964157104,-1.0986326932907104,73.33333587646484,205329.0,0.0
14953.7608176,294938.875,294868.53125,326010.65625,319203.59375,285190.40625,255632.265625,221406.46875,245616.171875,0.016357421875,0.99072265625,0.06787109375,1.1291502714157104,-1.3732908964157104,-1.0986326932907104,73.33333587646484,205330.0,0.0
14953.7608178,294938.875,294868.53125,326010.65625,319203.59375,285190.40625,255632.265625,221406.46875,245616.171875,0.016357421875,0.99072265625,0.06787109375,1.1291502714157104,-1.3732908964157104,-1.0986326932907104,73.33333587646484,205331.0,0.0
14953.7608179,294938.875,294868.53125,326010.65625,319203.59375,285190.40625,255632.265625,221406.46875,245616.171875,0.016357421875,0.99072265625,0.06787109375,1.1291502714157104,-1.3732908964157104,-1.0986326932907104,73.33333587646484,205332.0,0.0
14953.7608181,294938.875,294868.53125,326010.65625,319203.59375,285190.40625,255632.265625,221406.46875,245616.171875,0.016357421875,0.99072265625,0.06787109375,1.1291502714157104,-1.3732908964157104,-1.0986326932907104,73.33333587646484,205333.0,0.0
14953.7608183,294938.875,294868.53125,326010.65625,319203.59375,285190.40625,255632.265625,221406.46875,245616.171875,0.016357421875,0.99072265625,0.06787109375,1.1291502714157104,-1.3732908964157104,-1.0986326932907104,73.33333587646484,205334.0,0.0
14953.7608185,294938.875,294868.53125,326010.65625,319203.59375,285190.40625,255632.265625,221406.46875,245616.171875,0.016357421875,0.99072265625,0.06787109375,1.1291502714157104,-1.3732908964157104,-1.0986326932907104,73.33333587646484,205335.0,0.0
14953.7608186,294938.875,294868.53125,326010.65625,319203.59375,285190.40625,255632.265625,221406.46875,245616.171875,0.016357421875,0.99072265625,0.06787109375,1.1291502714157104,-1.3732908964157104,-1.0986326932907104,73.33333587646484,205336.0,0.0
14953.7608188,294938.875,294868.53125,326010.65625,319203.59375,285190.40625,255632.265625,221406.46875,245616.171875,0.016357421875,0.99072265625,0.06787109375,1.1291502714157104,-1.3732908964157104,-1.0986326932907104,73.33333587646484,205337.0,0.0
14953.760819,294938.875,294868.53125,326010.65625,319203.59375,285190.40625,255632.265625,221406.46875,245616.171875,0.016357421875,0.99072265625,0.06787109375,1.1291502714157104,-1.3732908964157104,-1.0986326932907104,73.33333587646484,205338.0,0.0
14953.7608192,294938.875,294868.53125,326010.65625,319203.59375,285190.40625,255632.265625,221406.46875,245616.171875,0.016357421875,0.99072265625,0.06787109375,1.1291502714157104,-1.3732908964157104,-1.0986326932907104,73.33333587646484,205339.0,0.0
14953.7608194,294938.875,294868.53125,326010.65625,319203.59375,285190.40625,255632.265625,221406.46875,245616.171875,0.016357421875,0.99072265625,0.06787109375,1.1291502714157104,-1.3732908964157104,-1.0986326932907104,73.33333587646484,205340.0,0.0
14953.7608195,294938.875,294868.53125,326010.65625,319203.59375,285190.40625,255632.265625,221406.46875,245616.171875,0.016357421875,0.99072265625,0.06787109375,1.1291502714157104,-1.3732908964157104,-1.0986326932907104,73.33333587646484,205341.0,0.0
14953.7608197,294938.875,294868.53125,326010.65625,319203.59375,285190.40625,255632.265625,221406.46875,245616.171875,0.016357421875,0.99072265625,0.06787109375,1.1291502714157104,-1.3732908964157104,-1.0986326932907104,73.33333587646484,205342.0,0.0
14953.7608199,294938.875,294868.53125,326010.65625,319203.59375,285190.40625,255632.265625,221406.46875,245616.171875,0.016357421875,0.99072265625,0.06787109375,1.1291502714157104,-1.3732908964157104,-1.0986326932907104,73.33333587646484,205343.0,0.0
14953.7608201,294938.875,294868.53125,326010.65625,319203.59375,285190.40625,255632.265625,221406.46875,245616.171875,0.016357421875,0.99072265625,0.06787109375,1.1291502714157104,-1.3732908964157104,-1.0986326932907104,73.33333587646484,205344.0,0.0
14953.7608202,294938.875,294868.53125,326010.65625,319203.59375,285190.40625,255632.265625,221406.46875,245616.171875,0.016357421875,0.99072265625,0.06787109375,1.1291502714157104,-1.3732908964157104,-1.0986326932907104,73.33333587646484,205345.0,0.0
14953.7608204,294938.875,294868.53125,326010.65625,319203.59375,285190.40625,255632.265625,221406.46875,245616.171875,0.016357421875,0.99072265625,0.06787109375,1.1291502714157104,-1.3732908964157104,-1.0986326932907104,73.33333587646484,205346.0,0.0
14953.7608206,294938.875,294868.53125,326010.65625,319203.59375,285190.40625,255632.265625,221406.46875,245616.171875,0.016357421875,0.99072265625,0.06787109375,1.1291502714157104,-1.3732908964157104,-1.0986326932907104,73.33333587646484,205347.0,0.0
14953.7608207,294938.875,294868.53125,326010.65625,319203.59375,285190.40625,255632.265625,221406.46875,245616.171875,0.016357421875,0.99072265625,0.06787109375,1.1291502714157104,-1.3732908964157104,-1.0986326932907104,73.33333587646484,205348.0,0.0
14953.7608209,294949.0625,295176.34375,326223.0,319171.65625,285333.34375,255680.90625,221446.25,245581.9375,0.01806640625,0.990478515625,0.066162109375,0.8850097060203552,-1.4953612089157104,-1.1901854276657104,73.33333587646484,205349.0,1.0
14953.7608222,294914.90625,295193.59375,326203.6875,319129.09375,285333.53125,255670.265625,221429.4375,245560.390625,0.01806640625,0.98974609375,0.067138671875,0.8850097060203552,-1.5563963651657104,-1.2207030057907104,73.33333587646484,205350.0,1.0
14953.7795162,294882.90625,294883.28125,325978.40625,319115.96875,285186.71875,255611.25,221362.75,245544.203125,0.0185546875,0.9892578125,0.06689453125,0.8239745497703552,-1.4953612089157104,-1.1291502714157104,73.33333587646484,205351.0,1.0
14953.7795218,294885.40625,294655.90625,325832.5625,319140.71875,285077.65625,255573.875,221333.78125,245552.34375,0.01806640625,0.9892578125,0.06640625,0.9765624403953552,-1.4343260526657104,-1.0375975370407104,73.33333587646484,205352.0,1.0
14953.7795231,294913.5,294833.75,325978.125,319164.40625,285161.25,255609.203125,221380.09375,245565.3125,0.018798828125,0.9873046875,0.06494140625,1.0375975370407104,-1.3732908964157104,-1.0375975370407104,73.33333587646484,205353.0,1.0
14953.7845427,294918.6875,295142.5625,326180.1875,319144.40625,285299.125,255652.65625,221421.671875,245556.015625,0.0166015625,0.98779296875,0.064453125,1.0375975370407104,-1.4038084745407104,-0.8544921278953552,73.33333587646484,205354.0,1.0
14953.784545,294897.65625,295165.78125,326168.28125,319111.03125,285309.75,255650.234375,221408.078125,245542.15625,0.018798828125,0.988525390625,0.06396484375,1.0986326932907104,-1.4038084745407104,-0.7934569716453552,73.33333587646484,205355.0,1.0
14953.7845463,294867.53125,294866.71875,325951.40625,319100.9375,285169.1875,255593.90625,221349.609375,245527.9375,0.020263671875,0.98876953125,0.0654296875,1.1596678495407104,-1.4343260526657104,-0.9765624403953552,73.33333587646484,205356.0,1.0
14953.7845476,294880.6875,294654.5625,325827.65625,319140.09375,285076.5,255566.734375,221326.453125,245539.734375,0.019287109375,0.98828125,0.063720703125,1.0986326932907104,-1.4038084745407104,-0.9155272841453552,73.33333587646484,205357.0,1.0
14953.7845488,294913.75,294841.6875,325986.625,319168.34375,285169.8125,255608.484375,221373.46875,245554.84375,0.01953125,0.98974609375,0.062744140625,1.1291502714157104,-1.3122557401657104,-0.8239745497703552,73.33333587646484,205358.0,1.0
14953.78455,294925.125,295158.46875,326200.125,319152.78125,285318.25,255668.46875,221431.046875,245553.859375,0.018310546875,0.989501953125,0.064208984375,1.1596678495407104,-1.3427733182907104,-0.8544921278953552,73.33333587646484,205359.0,1.0
14953.7879766,294915.09375,295195.3125,326198.25,319127.9375,285335.9375,255682.59375,221427.65625,245548.859375,0.02099609375,0.98974609375,0.063232421875,1.1596678495407104,-1.2817381620407104,-0.8850097060203552,73.33333587646484,205360.0,1.0
14953.7879797,294878.4375,294880.6875,325969.625,319114.25,285183.15625,255609.734375,221349.15625,245530.34375,0.021728515625,0.9892578125,0.0625,1.2207030057907104,-1.4038084745407104,-0.9155272841453552,73.33333587646484,205361.0,1.0
14953.787981,294880.9375,294658.5,325834.1875,319142.34375,285077.1875,255563.421875,221317.953125,245532.9375,0.02001953125,0.992431640625,0.061767578125,1.2512205839157104,-1.3732908964157104,-0.9765624403953552,73.33333587646484,205362.0,1.0
14953.7879823,294918.6875,294845.375,325993.15625,319173.4375,285172.78125,255613.046875,221373.65625,245554.671875,0.019775390625,0.991455078125,0.063232421875,1.1901854276657104,-1.4038084745407104,-0.9460448622703552,73.33333587646484,205363.0,1.0
14953.7879835,294933.875,295164.90625,326209.5,319163.53125,285325.5,255677.59375,221434.546875,245559.9375,0.01904296875,0.989013671875,0.063720703125,1.1596678495407104,-1.3122557401657104,-0.9765624403953552,73.33333587646484,205364.0,1.0
14953.7927744,294901.59375,295184.40625,326194.03125,319121.59375,285330.5,255671.6875,221420.0625,245538.9375,0.018310546875,0.990234375,0.063720703125,1.1596678495407104,-1.3122557401657104,-0.9765624403953552,73.33333587646484,205365.0,1.0
14953.7927797,294861.90625,294870.75,325963.65625,319102.0,285176.4375,255596.765625,221341.203125,245513.71875,0.020751953125,0.988037109375,0.061279296875,1.0681151151657104,-1.3427733182907104,-0.9460448622703552,73.33333587646484,205366.0,1.0
14953.7951743,294861.90625,294870.75,325963.65625,319102.0,285176.4375,255596.765625,221341.203125,245513.71875,0.020751953125,0.988037109375,0.061279296875,1.0681151151657104,-1.3427733182907104,-0.9460448622703552,73.33333587646484,205367.0,0.0
14953.7951761,294861.90625,294870.75,325963.65625,319102.0,285176.4375,255596.765625,221341.203125,245513.71875,0.020751953125,0.988037109375,0.061279296875,1.0681151151657104,-1.3427733182907104,-0.9460448622703552,73.33333587646484,205368.0,0.0
14953.7951763,294861.90625,294870.75,325963.65625,319102.0,285176.4375,255596.765625,221341.203125,245513.71875,0.020751953125,0.988037109375,0.061279296875,1.0681151151657104,-1.3427733182907104,-0.9460448622703552,73.33333587646484,205369.0,0.0
14953.7951765,294861.90625,294870.75,325963.65625,319102.0,285176.4375,255596.765625,221341.203125,245513.71875,0.020751953125,0.988037109375,0.061279296875,1.0681151151657104,-1.3427733182907104,-0.9460448622703552,73.33333587646484,205370.0,0.0
14953.7951768,294861.90625,294870.75,325963.65625,319102.0,285176.4375,255596.765625,221341.203125,245513.71875,0.020751953125,0.988037109375,0.061279296875,1.0681151151657104,-1.3427733182907104,-0.9460448622703552,73.33333587646484,205371.0,0.0
14953.795177,294861.90625,294870.75,325963.65625,319102.0,285176.4375,255596.765625,221341.203125,245513.71875,0.020751953125,0.988037109375,0.061279296875,1.0681151151657104,-1.3427733182907104,-0.9460448622703552,73.33333587646484,205372.0,0.0
14953.7951771,294861.90625,294870.75,325963.65625,319102.0,285176.4375,255596.765625,221341.203125,245513.71875,0.020751953125,0.988037109375,0.061279296875,1.0681151151657104,-1.3427733182907104,-0.9460448622703552,73.33333587646484,205373.0,0.0
14953.7951773,294861.90625,294870.75,325963.65625,319102.0,285176.4375,255596.765625,221341.203125,245513.71875,0.020751953125,0.988037109375,0.061279296875,1.0681151151657104,-1.3427733182907104,-0.9460448622703552,73.33333587646484,205374.0,0.0
14953.7951775,294861.90625,294870.75,325963.65625,319102.0,285176.4375,255596.765625,221341.203125,245513.71875,0.020751953125,0.988037109375,0.061279296875,1.0681151151657104,-1.3427733182907104,-0.9460448622703552,73.33333587646484,205375.0,0.0
14953.7951776,294861.90625,294870.75,325963.65625,319102.0,285176.4375,255596.765625,221341.203125,245513.71875,0.020751953125,0.988037109375,0.061279296875,1.0681151151657104,-1.3427733182907104,-0.9460448622703552,73.33333587646484,205376.0,0.0
14953.7951778,294861.90625,294870.75,325963.65625,319102.0,285176.4375,255596.765625,221341.203125,245513.71875,0.020751953125,0.988037109375,0.061279296875,1.0681151151657104,-1.3427733182907104,-0.9460448622703552,73.33333587646484,205377.0,0.0
14953.795178,294861.90625,294870.75,325963.65625,319102.0,285176.4375,255596.765625,221341.203125,245513.71875,0.020751953125,0.988037109375,0.061279296875,1.0681151151657104,-1.3427733182907104,-0.9460448622703552,73.33333587646484,205378.0,0.0
14953.7951782,294861.90625,294870.75,325963.65625,319102.0,285176.4375,255596.765625,221341.203125,245513.71875,0.020751953125,0.988037109375,0.061279296875,1.0681151151657104,-1.3427733182907104,-0.9460448622703552,73.33333587646484,205379.0,0.0
14953.7951783,294861.90625,294870.75,325963.65625,319102.0,285176.4375,255596.765625,221341.203125,245513.71875,0.020751953125,0.988037109375,0.061279296875,1.0681151151657104,-1.3427733182907104,-0.9460448622703552,73.33333587646484,205380.0,0.0
14953.7951785,294861.90625,294870.75,325963.65625,319102.0,285176.4375,255596.765625,221341.203125,245513.71875,0.020751953125,0.988037109375,0.061279296875,1.0681151151657104,-1.3427733182907104,-0.9460448622703552,73.33333587646484,205381.0,0.0
14953.7951787,294861.90625,294870.75,325963.65625,319102.0,285176.4375,255596.765625,221341.203125,245513.71875,0.020751953125,0.988037109375,0.061279296875,1.0681151151657104,-1.3427733182907104,-0.9460448622703552,73.33333587646484,205382.0,0.0
14953.7951789,294861.90625,294870.75,325963.65625,319102.0,285176.4375,255596.765625,221341.203125,245513.71875,0.020751953125,0.988037109375,0.061279296875,1.0681151151657104,-1.3427733182907104,-0.9460448622703552,73.33333587646484,205383.0,0.0
14953.7951791,294914.65625,295147.75,326198.96875,319147.0625,285315.65625,255674.828125,221411.203125,245514.4375,0.023193359375,0.991943359375,0.059814453125,0.6713866591453552,-1.5258787870407104,-0.9765624403953552,73.33333587646484,205384.0,1.0
14953.798248,294883.09375,295151.03125,326160.5,319100.65625,285301.78125,255658.546875,221383.125,245489.578125,0.02294921875,0.993408203125,0.057861328125,0.6103515028953552,-1.5563963651657104,-0.9155272841453552,73.33333587646484,205385.0,1.0
14953.79825,294849.5625,294843.84375,325932.53125,319085.84375,285150.875,255592.125,221316.703125,245476.609375,0.022216796875,0.992919921875,0.063232421875,0.4882812201976776,-1.4953612089157104,-1.0986326932907104,73.33333587646484,205386.0,1.0
14953.8001835,294859.40625,294632.125,325806.09375,319119.625,285055.5625,255564.40625,221294.890625,245491.640625,0.021484375,0.99462890625,0.058349609375,0.4272460639476776,-1.4648436307907104,-1.0681151151657104,73.33333587646484,205387.0,1.0
14953.8251824,294896.25,294826.3125,325972.9375,319152.15625,285156.0625,255604.640625,221348.359375,245507.453125,0.022705078125,0.99267578125,0.059326171875,0.3662109076976776,-1.4038084745407104,-1.0070799589157104,73.33333587646484,205388.0,1.0
14953.8720376,294909.03125,295133.6875,326175.28125,319135.0,285296.59375,255661.328125,221400.390625,245503.34375,0.023681640625,0.9912109375,0.06298828125,0.3662109076976776,-1.3122557401657104,-1.0986326932907104,73.33333587646484,205389.0,1.0
14953.8720458,294875.03125,295147.75,326148.625,319090.21875,285294.90625,255652.109375,221381.078125,245479.65625,0.0244140625,0.989501953125,0.0615234375,0.3356933295726776,-1.2817381620407104,-1.0375975370407104,73.33333587646484,205390.0,1.0
14953.8745659,294837.9375,294847.34375,325932.53125,319073.21875,285151.78125,255584.078125,221312.765625,245457.390625,0.02392578125,0.9892578125,0.061279296875,0.3356933295726776,-1.1291502714157104,-1.1901854276657104,73.33333587646484,205391.0,1.0
14953.8745716,294846.0625,294630.53125,325807.09375,319104.34375,285058.0625,255556.625,221287.015625,245464.90625,0.023681640625,0.990234375,0.058837890625,0.2441406100988388,-1.1291502714157104,-1.1901854276657104,73.33333587646484,205392.0,1.0
14953.8765206,294897.84375,294835.09375,325987.4375,319152.15625,285169.375,255615.546875,221352.203125,245498.875,0.021728515625,0.9912109375,0.063232421875,0.0915527269244194,-1.0375975370407104,-1.1291502714157104,73.33333587646484,205393.0,1.0
14953.8789908,294910.8125,295150.15625,326197.8125,319137.25,285317.0,255673.296875,221406.375,245502.71875,0.020751953125,0.99072265625,0.0625,0.0610351525247097,-0.9765624403953552,-1.1596678495407104,73.33333587646484,205394.0,1.0
14953.8845583,294910.8125,295150.15625,326197.8125,319137.25,285317.0,255673.296875,221406.375,245502.71875,0.020751953125,0.99072265625,0.0625,0.0610351525247097,-0.9765624403953552,-1.1596678495407104,73.33333587646484,205395.0,0.0
14953.8845594,294910.8125,295150.15625,326197.8125,319137.25,285317.0,255673.296875,221406.375,245502.71875,0.020751953125,0.99072265625,0.0625,0.0610351525247097,-0.9765624403953552,-1.1596678495407104,73.33333587646484,205396.0,0.0
14953.8845597,294910.8125,295150.15625,326197.8125,319137.25,285317.0,255673.296875,221406.375,245502.71875,0.020751953125,0.99072265625,0.0625,0.0610351525247097,-0.9765624403953552,-1.1596678495407104,73.33333587646484,205397.0,0.0
14953.8845599,294910.8125,295150.15625,326197.8125,319137.25,285317.0,255673.296875,221406.375,245502.71875,0.020751953125,0.99072265625,0.0625,0.0610351525247097,-0.9765624403953552,-1.1596678495407104,73.33333587646484,205398.0,0.0
14953.88456,294910.8125,295150.15625,326197.8125,319137.25,285317.0,255673.296875,221406.375,245502.71875,0.020751953125,0.99072265625,0.0625,0.0610351525247097,-0.9765624403953552,-1.1596678495407104,73.33333587646484,205399.0,0.0
14953.8845602,294910.8125,295150.15625,326197.8125,319137.25,285317.0,255673.296875,221406.375,245502.71875,0.020751953125,0.99072265625,0.0625,0.0610351525247097,-0.9765624403953552,-1.1596678495407104,73.33333587646484,205400.0,0.0
14953.8845604,294910.8125,295150.15625,326197.8125,319137.25,285317.0,255673.296875,221406.375,245502.71875,0.020751953125,0.99072265625,0.0625,0.0610351525247097,-0.9765624403953552,-1.1596678495407104,73.33333587646484,205401.0,0.0
14953.8845606,294910.8125,295150.15625,326197.8125,319137.25,285317.0,255673.296875,221406.375,245502.71875,0.020751953125,0.99072265625,0.0625,0.0610351525247097,-0.9765624403953552,-1.1596678495407104,73.33333587646484,205402.0,0.0
14953.8845608,294910.8125,295150.15625,326197.8125,319137.25,285317.0,255673.296875,221406.375,245502.71875,0.020751953125,0.99072265625,0.0625,0.0610351525247097,-0.9765624403953552,-1.1596678495407104,73.33333587646484,205403.0,0.0
14953.8845609,294910.8125,295150.15625,326197.8125,319137.25,285317.0,255673.296875,221406.375,245502.71875,0.020751953125,0.99072265625,0.0625,0.0610351525247097,-0.9765624403953552,-1.1596678495407104,73.33333587646484,205404.0,0.0
14953.8845611,294910.8125,295150.15625,326197.8125,319137.25,285317.0,255673.296875,221406.375,245502.71875,0.020751953125,0.99072265625,0.0625,0.0610351525247097,-0.9765624403953552,-1.1596678495407104,73.33333587646484,205405.0,0.0
14953.8845613,294910.8125,295150.15625,326197.8125,319137.25,285317.0,255673.296875,221406.375,245502.71875,0.020751953125,0.99072265625,0.0625,0.0610351525247097,-0.9765624403953552,-1.1596678495407104,73.33333587646484,205406.0,0.0
14953.8845615,294910.8125,295150.15625,326197.8125,319137.25,285317.0,255673.296875,221406.375,245502.71875,0.020751953125,0.99072265625,0.0625,0.0610351525247097,-0.9765624403953552,-1.1596678495407104,73.33333587646484,205407.0,0.0
14953.8845616,294910.8125,295150.15625,326197.8125,319137.25,285317.0,255673.296875,221406.375,245502.71875,0.020751953125,0.99072265625,0.0625,0.0610351525247097,-0.9765624403953552,-1.1596678495407104,73.33333587646484,205408.0,0.0
14953.8845618,294910.8125,295150.15625,326197.8125,319137.25,285317.0,255673.296875,221406.375,245502.71875,0.020751953125,0.99072265625,0.0625,0.0610351525247097,-0.9765624403953552,-1.1596678495407104,73.33333587646484,205409.0,0.0
14953.884562,294910.8125,295150.15625,326197.8125,319137.25,285317.0,255673.296875,221406.375,245502.71875,0.020751953125,0.99072265625,0.0625,0.0610351525247097,-0.9765624403953552,-1.1596678495407104,73.33333587646484,205410.0,0.0
14953.8845622,294910.8125,295150.15625,326197.8125,319137.25,285317.0,255673.296875,221406.375,245502.71875,0.020751953125,0.99072265625,0.0625,0.0610351525247097,-0.9765624403953552,-1.1596678495407104,73.33333587646484,205411.0,0.0
14953.8845624,294910.8125,295150.15625,326197.8125,319137.25,285317.0,255673.296875,221406.375,245502.71875,0.020751953125,0.99072265625,0.0625,0.0610351525247097,-0.9765624403953552,-1.1596678495407104,73.33333587646484,205412.0,0.0
14953.8845625,294910.8125,295150.15625,326197.8125,319137.25,285317.0,255673.296875,221406.375,245502.71875,0.020751953125,0.99072265625,0.0625,0.0610351525247097,-0.9765624403953552,-1.1596678495407104,73.33333587646484,205413.0,0.0
14953.8845627,294910.8125,295150.15625,326197.8125,319137.25,285317.0,255673.296875,221406.375,245502.71875,0.020751953125,0.99072265625,0.0625,0.0610351525247097,-0.9765624403953552,-1.1596678495407104,73.33333587646484,205414.0,0.0
14953.8845629,294910.8125,295150.15625,326197.8125,319137.25,285317.0,255673.296875,221406.375,245502.71875,0.020751953125,0.99072265625,0.0625,0.0610351525247097,-0.9765624403953552,-1.1596678495407104,73.33333587646484,205415.0,0.0
14953.8845631,294910.8125,295150.15625,326197.8125,319137.25,285317.0,255673.296875,221406.375,245502.71875,0.020751953125,0.99072265625,0.0625,0.0610351525247097,-0.9765624403953552,-1.1596678495407104,73.33333587646484,205416.0,0.0
14953.8845633,294910.8125,295150.15625,326197.8125,319137.25,285317.0,255673.296875,221406.375,245502.71875,0.020751953125,0.99072265625,0.0625,0.0610351525247097,-0.9765624403953552,-1.1596678495407104,73.33333587646484,205417.0,0.0
14953.8845634,294910.8125,295150.15625,326197.8125,319137.25,285317.0,255673.296875,221406.375,245502.71875,0.020751953125,0.99072265625,0.0625,0.0610351525247097,-0.9765624403953552,-1.1596678495407104,73.33333587646484,205418.0,0.0
14953.8845638,294910.8125,295150.15625,326197.8125,319137.25,285317.0,255673.296875,221406.375,245502.71875,0.020751953125,0.99072265625,0.0625,0.0610351525247097,-0.9765624403953552,-1.1596678495407104,73.33333587646484,205419.0,0.0
14953.8845639,294910.8125,295150.15625,326197.8125,319137.25,285317.0,255673.296875,221406.375,245502.71875,0.020751953125,0.99072265625,0.0625,0.0610351525247097,-0.9765624403953552,-1.1596678495407104,73.33333587646484,205420.0,0.0
14953.8845641,294910.8125,295150.15625,326197.8125,319137.25,285317.0,255673.296875,221406.375,245502.71875,0.020751953125,0.99072265625,0.0625,0.0610351525247097,-0.9765624403953552,-1.1596678495407104,73.33333587646484,205421.0,0.0
14953.8845643,294910.8125,295150.15625,326197.8125,319137.25,285317.0,255673.296875,221406.375,245502.71875,0.020751953125,0.99072265625,0.0625,0.0610351525247097,-0.9765624403953552,-1.1596678495407104,73.33333587646484,205422.0,0.0
14953.8845644,294910.8125,295150.15625,326197.8125,319137.25,285317.0,255673.296875,221406.375,245502.71875,0.020751953125,0.99072265625,0.0625,0.0610351525247097,-0.9765624403953552,-1.1596678495407104,73.33333587646484,205423.0,0.0
14953.8845646,294910.8125,295150.15625,326197.8125,319137.25,285317.0,255673.296875,221406.375,245502.71875,0.020751953125,0.99072265625,0.0625,0.0610351525247097,-0.9765624403953552,-1.1596678495407104,73.33333587646484,205424.0,0.0
14953.8845648,294910.8125,295150.15625,326197.8125,319137.25,285317.0,255673.296875,221406.375,245502.71875,0.020751953125,0.99072265625,0.0625,0.0610351525247097,-0.9765624403953552,-1.1596678495407104,73.33333587646484,205425.0,0.0
14953.8845649,294910.8125,295150.15625,326197.8125,319137.25,285317.0,255673.296875,221406.375,245502.71875,0.020751953125,0.99072265625,0.0625,0.0610351525247097,-0.9765624403953552,-1.1596678495407104,73.33333587646484,205426.0,0.0
14953.8845651,294910.8125,295150.15625,326197.8125,319137.25,285317.0,255673.296875,221406.375,245502.71875,0.020751953125,0.99072265625,0.0625,0.0610351525247097,-0.9765624403953552,-1.1596678495407104,73.33333587646484,205427.0,0.0
14953.8845653,294855.46875,294770.25,325927.34375,319106.40625,285108.5,255566.546875,221291.671875,245437.28125,0.029541015625,0.9892578125,0.0654296875,-0.03051757626235485,-0.7934569716453552,-1.4953612089157104,73.33333587646484,205428.0,1.0
14953.8845694,294867.1875,295081.9375,326142.09375,319089.3125,285256.65625,255625.640625,221339.953125,245428.25,0.02880859375,0.9912109375,0.066162109375,-0.03051757626235485,-0.5493163466453552,-1.5869139432907104,73.33333587646484,205429.0,1.0
14953.8845707,294837.21875,295095.625,326119.9375,319045.5,285254.75,255611.171875,221319.65625,245404.109375,0.030029296875,0.99169921875,0.065673828125,-0.03051757626235485,-0.3662109076976776,-1.6784666776657104,73.33333587646484,205430.0,1.0
14953.8845719,294814.59375,294805.125,325911.96875,319043.53125,285118.25,255551.984375,221260.203125,245395.875,0.0283203125,0.992919921875,0.06494140625,-0.03051757626235485,-0.2136230319738388,-1.8615721464157104,73.33333587646484,205431.0,1.0
14953.8845731,294827.03125,294593.40625,325791.09375,319084.03125,285026.875,255525.515625,221240.703125,245413.9375,0.0263671875,0.99365234375,0.0654296875,-0.1220703050494194,-0.03051757626235485,-1.8920897245407104,73.33333587646484,205432.0,1.0
14953.8845743,294873.09375,294794.65625,325963.09375,319125.96875,285131.21875,255580.671875,221297.296875,245436.296875,0.02294921875,0.99365234375,0.065673828125,-0.0915527269244194,0.03051757626235485,-1.8920897245407104,73.33333587646484,205433.0,1.0
14953.8886119,294885.9375,295112.6875,326176.96875,319115.5,285282.40625,255641.46875,221353.359375,245441.65625,0.020263671875,0.993408203125,0.06787109375,-0.2136230319738388,0.0610351525247097,-1.8920897245407104,73.33333587646484,205434.0,1.0
14953.8886169,294851.96875,295121.09375,326149.34375,319071.78125,285280.0625,255636.375,221337.171875,245422.796875,0.01806640625,0.9921875,0.065673828125,-0.3967284858226776,0.0,-1.8310545682907104,73.33333587646484,205435.0,1.0
14953.8886183,294823.625,294815.78125,325928.78125,319062.125,285134.96875,255581.484375,221279.0625,245412.59375,0.01611328125,0.992431640625,0.065673828125,-0.4272460639476776,-0.0915527269244194,-1.8615721464157104,73.33333587646484,205436.0,1.0
14953.8886195,294837.5,294608.53125,325803.59375,319099.59375,285041.25,255543.84375,221249.46875,245425.203125,0.0107421875,0.991455078125,0.066650390625,-0.3967284858226776,-0.1220703050494194,-1.8920897245407104,73.33333587646484,205437.0,1.0
14953.8901824,294868.53125,294796.375,325961.21875,319128.21875,285136.125,255584.96875,221297.125,245443.71875,0.009521484375,0.992431640625,0.0654296875,-0.2746581733226776,-0.1525878757238388,-2.014159917831421,73.33333587646484,205438.0,1.0
14953.8901843,294873.0,295109.125,326167.9375,319105.21875,285278.46875,255628.953125,221341.5625,245435.390625,0.00732421875,0.99267578125,0.0693359375,-0.1220703050494194,-0.3662109076976776,-2.075195074081421,73.33333587646484,205439.0,1.0
14953.8926963,294873.0,295109.125,326167.9375,319105.21875,285278.46875,255628.953125,221341.5625,245435.390625,0.00732421875,0.99267578125,0.0693359375,-0.1220703050494194,-0.3662109076976776,-2.075195074081421,73.33333587646484,205440.0,0.0
14953.8926968,294873.0,295109.125,326167.9375,319105.21875,285278.46875,255628.953125,221341.5625,245435.390625,0.00732421875,0.99267578125,0.0693359375,-0.1220703050494194,-0.3662109076976776,-2.075195074081421,73.33333587646484,205441.0,0.0
14953.892697,294873.0,295109.125,326167.9375,319105.21875,285278.46875,255628.953125,221341.5625,245435.390625,0.00732421875,0.99267578125,0.0693359375,-0.1220703050494194,-0.3662109076976776,-2.075195074081421,73.33333587646484,205442.0,0.0
14953.8926972,294873.0,295109.125,326167.9375,319105.21875,285278.46875,255628.953125,221341.5625,245435.390625,0.00732421875,0.99267578125,0.0693359375,-0.1220703050494194,-0.3662109076976776,-2.075195074081421,73.33333587646484,205443.0,0.0
14953.8926974,294873.0,295109.125,326167.9375,319105.21875,285278.46875,255628.953125,221341.5625,245435.390625,0.00732421875,0.99267578125,0.0693359375,-0.1220703050494194,-0.3662109076976776,-2.075195074081421,73.33333587646484,205444.0,0.0
14953.8926976,294873.0,295109.125,326167.9375,319105.21875,285278.46875,255628.953125,221341.5625,245435.390625,0.00732421875,0.99267578125,0.0693359375,-0.1220703050494194,-0.3662109076976776,-2.075195074081421,73.33333587646484,205445.0,0.0
14953.8926978,294873.0,295109.125,326167.9375,319105.21875,285278.46875,255628.953125,221341.5625,245435.390625,0.00732421875,0.99267578125,0.0693359375,-0.1220703050494194,-0.3662109076976776,-2.075195074081421,73.33333587646484,205446.0,0.0
14953.8926979,294873.0,295109.125,326167.9375,319105.21875,285278.46875,255628.953125,221341.5625,245435.390625,0.00732421875,0.99267578125,0.0693359375,-0.1220703050494194,-0.3662109076976776,-2.075195074081421,73.33333587646484,205447.0,0.0
14953.8926982,294873.0,295109.125,326167.9375,319105.21875,285278.46875,255628.953125,221341.5625,245435.390625,0.00732421875,0.99267578125,0.0693359375,-0.1220703050494194,-0.3662109076976776,-2.075195074081421,73.33333587646484,205448.0,0.0
14953.8926984,294873.0,295109.125,326167.9375,319105.21875,285278.46875,255628.953125,221341.5625,245435.390625,0.00732421875,0.99267578125,0.0693359375,-0.1220703050494194,-0.3662109076976776,-2.075195074081421,73.33333587646484,205449.0,0.0
14953.8926986,294873.0,295109.125,326167.9375,319105.21875,285278.46875,255628.953125,221341.5625,245435.390625,0.00732421875,0.99267578125,0.0693359375,-0.1220703050494194,-0.3662109076976776,-2.075195074081421,73.33333587646484,205450.0,0.0
14953.8926988,294873.0,295109.125,326167.9375,319105.21875,285278.46875,255628.953125,221341.5625,245435.390625,0.00732421875,0.99267578125,0.0693359375,-0.1220703050494194,-0.3662109076976776,-2.075195074081421,73.33333587646484,205451.0,0.0
14953.892699,294873.0,295109.125,326167.9375,319105.21875,285278.46875,255628.953125,221341.5625,245435.390625,0.00732421875,0.99267578125,0.0693359375,-0.1220703050494194,-0.3662109076976776,-2.075195074081421,73.33333587646484,205452.0,0.0
14953.8926992,294873.0,295109.125,326167.9375,319105.21875,285278.46875,255628.953125,221341.5625,245435.390625,0.00732421875,0.99267578125,0.0693359375,-0.1220703050494194,-0.3662109076976776,-2.075195074081421,73.33333587646484,205453.0,0.0
14953.8926993,294873.0,295109.125,326167.9375,319105.21875,285278.46875,255628.953125,221341.5625,245435.390625,0.00732421875,0.99267578125,0.0693359375,-0.1220703050494194,-0.3662109076976776,-2.075195074081421,73.33333587646484,205454.0,0.0
14953.8926995,294873.0,295109.125,326167.9375,319105.21875,285278.46875,255628.953125,221341.5625,245435.390625,0.00732421875,0.99267578125,0.0693359375,-0.1220703050494194,-0.3662109076976776,-2.075195074081421,73.33333587646484,205455.0,0.0
14953.8926997,294873.0,295109.125,326167.9375,319105.21875,285278.46875,255628.953125,221341.5625,245435.390625,0.00732421875,0.99267578125,0.0693359375,-0.1220703050494194,-0.3662109076976776,-2.075195074081421,73.33333587646484,205456.0,0.0
14953.8926999,294873.0,295109.125,326167.9375,319105.21875,285278.46875,255628.953125,221341.5625,245435.390625,0.00732421875,0.99267578125,0.0693359375,-0.1220703050494194,-0.3662109076976776,-2.075195074081421,73.33333587646484,205457.0,0.0
14953.8927,294873.0,295109.125,326167.9375,319105.21875,285278.46875,255628.953125,221341.5625,245435.390625,0.00732421875,0.99267578125,0.0693359375,-0.1220703050494194,-0.3662109076976776,-2.075195074081421,73.33333587646484,205458.0,0.0
14953.8927003,294873.0,295109.125,326167.9375,319105.21875,285278.46875,255628.953125,221341.5625,245435.390625,0.00732421875,0.99267578125,0.0693359375,-0.1220703050494194,-0.3662109076976776,-2.075195074081421,73.33333587646484,205459.0,0.0
14953.8927005,294873.0,295109.125,326167.9375,319105.21875,285278.46875,255628.953125,221341.5625,245435.390625,0.00732421875,0.99267578125,0.0693359375,-0.1220703050494194,-0.3662109076976776,-2.075195074081421,73.33333587646484,205460.0,0.0
14953.8927006,294873.0,295109.125,326167.9375,319105.21875,285278.46875,255628.953125,221341.5625,245435.390625,0.00732421875,0.99267578125,0.0693359375,-0.1220703050494194,-0.3662109076976776,-2.075195074081421,73.33333587646484,205461.0,0.0
14953.8927008,294873.0,295109.125,326167.9375,319105.21875,285278.46875,255628.953125,221341.5625,245435.390625,0.00732421875,0.99267578125,0.0693359375,-0.1220703050494194,-0.3662109076976776,-2.075195074081421,73.33333587646484,205462.0,0.0
14953.892701,294873.0,295109.125,326167.9375,319105.21875,285278.46875,255628.953125,221341.5625,245435.390625,0.00732421875,0.99267578125,0.0693359375,-0.1220703050494194,-0.3662109076976776,-2.075195074081421,73.33333587646484,205463.0,0.0
14953.8927012,294873.0,295109.125,326167.9375,319105.21875,285278.46875,255628.953125,221341.5625,245435.390625,0.00732421875,0.99267578125,0.0693359375,-0.1220703050494194,-0.3662109076976776,-2.075195074081421,73.33333587646484,205464.0,0.0
14953.8927013,294873.0,295109.125,326167.9375,319105.21875,285278.46875,255628.953125,221341.5625,245435.390625,0.00732421875,0.99267578125,0.0693359375,-0.1220703050494194,-0.3662109076976776,-2.075195074081421,73.33333587646484,205465.0,0.0
14953.8927015,294809.0625,294809.59375,325906.5,319033.71875,285116.71875,255546.96875,221232.296875,245363.875,0.025634765625,0.99462890625,0.0654296875,1.0375975370407104,-1.0070799589157104,-1.9836424589157104,73.33333587646484,205466.0,1.0
14953.9177584,294815.15625,294586.15625,325766.6875,319063.9375,285012.375,255513.078125,221205.75,245371.109375,0.02392578125,0.995361328125,0.06640625,1.0375975370407104,-0.8850097060203552,-2.105712652206421,73.33333587646484,205467.0,1.0
14953.9456957,294857.0,294781.625,325927.625,319097.8125,285109.75,255559.21875,221265.46875,245391.59375,0.021484375,0.996337890625,0.067138671875,0.9765624403953552,-0.7019042372703552,-2.166747808456421,73.33333587646484,205468.0,1.0
14953.9457028,294874.5,295100.0,326134.21875,319084.65625,285255.375,255625.109375,221320.28125,245393.90625,0.020263671875,0.994384765625,0.068359375,0.8544921278953552,-0.6408690810203552,-2.166747808456421,73.33333587646484,205469.0,1.0
14953.9457041,294839.71875,295111.71875,326105.875,319038.1875,285248.6875,255605.796875,221293.09375,245369.0625,0.020263671875,0.9912109375,0.06787109375,0.7934569716453552,-0.6408690810203552,-2.136230230331421,73.33333587646484,205470.0,1.0
14953.9457055,294811.65625,294809.59375,325888.8125,319028.625,285106.15625,255543.03125,221230.96875,245357.171875,0.018798828125,0.9912109375,0.06591796875,0.6713866591453552,-0.6103515028953552,-2.075195074081421,73.33333587646484,205471.0,1.0
14953.969604,294822.65625,294599.5,325763.46875,319064.375,285011.65625,255505.390625,221203.421875,245368.15625,0.018310546875,0.990966796875,0.063720703125,0.6713866591453552,-0.4882812201976776,-1.9836424589157104,73.33333587646484,205472.0,1.0
14953.96961,294871.46875,294812.1875,325941.46875,319109.625,285125.46875,255565.484375,221270.921875,245404.546875,0.01416015625,0.990966796875,0.06396484375,0.7324218153953552,-0.5187987685203552,-1.8615721464157104,73.33333587646484,205473.0,1.0
14954.0040305,294897.65625,295141.5625,326167.03125,319109.15625,285287.03125,255639.234375,221339.140625,245416.0,0.011962890625,0.989501953125,0.067626953125,0.6713866591453552,-0.6103515028953552,-1.9226073026657104,73.33333587646484,205474.0,1.0
14954.0290437,294861.90625,295145.84375,326136.09375,319061.5,285278.1875,255626.546875,221312.953125,245382.375,0.011962890625,0.98828125,0.070068359375,0.5493163466453552,-0.6713866591453552,-1.6784666776657104,73.33333587646484,205475.0,1.0
14954.0540093,294825.875,294833.5625,325905.78125,319045.25,285125.46875,255558.0625,221241.6875,245363.875,0.010986328125,0.98828125,0.0712890625,0.5493163466453552,-0.7629393935203552,-1.4343260526657104,73.33333587646484,205476.0,1.0
14954.0790091,294828.65625,294620.0625,325771.59375,319071.4375,285025.15625,255520.78125,221213.265625,245369.953125,0.0087890625,0.989501953125,0.06884765625,0.4577636420726776,-0.8850097060203552,-1.2512205839157104,73.33333587646484,205477.0,1.0
14954.1214848,294862.0,294815.84375,325936.8125,319102.71875,285127.625,255569.234375,221270.484375,245388.734375,0.007080078125,0.991455078125,0.072021484375,0.5187987685203552,-0.8850097060203552,-1.1291502714157104,73.33333587646484,205478.0,1.0
14954.1465276,294881.9375,295147.8125,326171.15625,319098.625,285293.375,255636.90625,221330.203125,245397.046875,0.008056640625,0.9921875,0.069091796875,0.4577636420726776,-1.1291502714157104,-0.9155272841453552,73.33333587646484,205479.0,1.0
14954.1984511,294852.59375,295165.625,326160.59375,319060.71875,285300.625,255626.453125,221310.265625,245381.671875,0.006591796875,0.9912109375,0.071044921875,0.3967284858226776,-1.2817381620407104,-0.7934569716453552,73.33333587646484,205480.0,1.0
14954.1984566,294817.375,294850.90625,325936.09375,319044.34375,285150.15625,255557.25,221239.640625,245361.1875,0.010009765625,0.991943359375,0.067138671875,0.3356933295726776,-1.4648436307907104,-0.5493163466453552,73.33333587646484,205481.0,1.0
14954.1984579,294819.625,294610.40625,325774.46875,319067.40625,285027.5,255511.5625,221201.546875,245359.84375,0.010986328125,0.9921875,0.064697265625,0.3356933295726776,-1.6784666776657104,-0.2746581733226776,73.33333587646484,205482.0,1.0
14954.1984592,294858.5,294796.71875,325911.34375,319099.6875,285110.28125,255559.125,221255.09375,245380.5,0.0126953125,0.988525390625,0.064453125,0.2746581733226776,-1.8005369901657104,-0.1220703050494194,73.33333587646484,205483.0,1.0
14954.1984604,294871.03125,295120.46875,326129.75,319090.21875,285266.21875,255623.234375,221315.265625,245381.484375,0.014404296875,0.98828125,0.066162109375,0.1525878757238388,-1.8615721464157104,-0.03051757626235485,73.33333587646484,205484.0,1.0
14954.1984616,294839.375,295130.46875,326098.65625,319044.34375,285260.21875,255607.046875,221290.421875,245355.203125,0.016845703125,0.98876953125,0.06640625,0.1525878757238388,-1.9836424589157104,0.0,73.33333587646484,205485.0,1.0
14954.1984628,294806.1875,294819.25,325864.5,319028.15625,285107.59375,255540.984375,221224.96875,245340.71875,0.015869140625,0.98876953125,0.063720703125,0.1525878757238388,-2.044677495956421,0.1220703050494194,73.33333587646484,205486.0,1.0
14954.198464,294813.09375,294598.25,325725.625,319059.71875,285004.5,255514.96875,221202.171875,245351.625,0.016357421875,0.988037109375,0.061279296875,0.1220703050494194,-1.8920897245407104,0.0915527269244194,73.33333587646484,205487.0,1.0
14954.1984653,294851.25,294797.0,325900.6875,319095.84375,285114.125,255573.078125,221267.171875,245374.953125,0.02001953125,0.98681640625,0.0615234375,0.0915527269244194,-2.044677495956421,0.1525878757238388,73.33333587646484,205488.0,1.0
14954.1984665,294865.03125,295122.6875,326126.1875,319082.4375,285272.03125,255631.8125,221324.125,245372.640625,0.021728515625,0.9873046875,0.0595703125,0.0915527269244194,-1.9531248807907104,0.1831054538488388,73.33333587646484,205489.0,1.0
14954.1984677,294838.46875,295147.1875,326120.09375,319044.6875,285281.6875,255630.296875,221312.328125,245354.03125,0.02294921875,0.986572265625,0.060791015625,0.03051757626235485,-1.8005369901657104,0.0915527269244194,73.33333587646484,205490.0,1.0
14954.198469,294804.3125,294835.4375,325894.0,319031.75,285131.28125,255563.59375,221241.6875,245339.828125,0.025634765625,0.98681640625,0.059326171875,0.03051757626235485,-1.7089842557907104,-0.0610351525247097,73.33333587646484,205491.0,1.0
14954.1984702,294808.96875,294606.375,325750.84375,319058.65625,285019.71875,255523.09375,221202.984375,245342.953125,0.02783203125,0.98779296875,0.05810546875,0.03051757626235485,-1.4343260526657104,-0.1831054538488388,73.33333587646484,205492.0,1.0
14954.1984716,294848.03125,294789.65625,325906.59375,319092.0,285114.9375,255576.46875,221261.984375,245361.09375,0.027587890625,0.98876953125,0.06298828125,0.0,-1.2817381620407104,-0.3967284858226776,73.33333587646484,205493.0,1.0
14954.2414965,294862.0,295104.8125,326119.21875,319076.4375,285263.34375,255627.96875,221306.78125,245359.765625,0.02880859375,0.989990234375,0.06103515625,-0.1220703050494194,-1.0986326932907104,-0.7019042372703552,73.33333587646484,205494.0,1.0
14954.267102,294822.21875,295117.4375,326093.90625,319024.9375,285257.28125,255589.609375,221269.578125,245327.84375,0.028076171875,0.9892578125,0.059814453125,-0.03051757626235485,-0.8544921278953552,-0.8850097060203552,73.33333587646484,205495.0,1.0
14954.267107,294791.4375,294812.71875,325872.71875,319014.46875,285111.96875,255528.640625,221208.875,245311.21875,0.027587890625,0.987060546875,0.059814453125,-0.1220703050494194,-0.6408690810203552,-1.0375975370407104,73.33333587646484,205496.0,1.0
14954.2915191,294812.1875,294608.78125,325761.21875,319056.59375,285027.65625,255510.671875,221196.265625,245329.0,0.028564453125,0.987548828125,0.063232421875,-0.1831054538488388,-0.4272460639476776,-1.2207030057907104,73.33333587646484,205497.0,1.0
14954.3165228,294850.1875,294801.1875,325925.375,319087.0,285122.71875,255551.703125,221242.21875,245346.078125,0.028564453125,0.987060546875,0.061767578125,-0.1831054538488388,-0.1525878757238388,-1.3732908964157104,73.33333587646484,205498.0,1.0
14954.3227619,294861.28125,295117.53125,326135.3125,319067.0625,285264.15625,255602.046875,221287.734375,245333.5625,0.0283203125,0.986328125,0.06298828125,-0.1831054538488388,0.0,-1.4343260526657104,73.33333587646484,205499.0,1.0
14954.32519,294839.1875,295141.75,326124.125,319034.34375,285270.0625,255592.75,221270.125,245316.125,0.025390625,0.98583984375,0.060546875,-0.2136230319738388,0.2746581733226776,-1.4953612089157104,73.33333587646484,205500.0,1.0
14954.3277802,294814.4375,294841.34375,325911.78125,319029.9375,285131.03125,255539.28125,221209.859375,245303.171875,0.0234375,0.98583984375,0.0615234375,-0.0610351525247097,0.3356933295726776,-1.4953612089157104,73.33333587646484,205501.0,1.0
14954.3308416,294820.875,294620.9375,325780.8125,319061.59375,285028.84375,255505.03125,221184.828125,245309.78125,0.02197265625,0.984375,0.05859375,0.0915527269244194,0.4577636420726776,-1.4648436307907104,73.33333587646484,205502.0,1.0
14954.3308471,294853.40625,294800.5625,325921.8125,319089.40625,285110.28125,255546.25,221234.625,245325.34375,0.01953125,0.984130859375,0.06103515625,0.1220703050494194,0.5187987685203552,-1.5563963651657104,73.33333587646484,205503.0,1.0
14954.3308486,294866.28125,295112.875,326128.78125,319079.03125,285256.03125,255604.546875,221288.1875,245325.609375,0.017333984375,0.986328125,0.0625,0.2746581733226776,0.6103515028953552,-1.4648436307907104,73.33333587646484,205504.0,1.0
14954.3327591,294837.0625,295131.46875,326115.8125,319038.09375,285259.3125,255587.375,221267.34375,245303.078125,0.017333984375,0.98828125,0.06494140625,0.3356933295726776,0.5187987685203552,-1.4648436307907104,73.33333587646484,205505.0,1.0
14954.3352452,294800.84375,294814.875,325878.34375,319018.96875,285098.125,255511.828125,221193.59375,245279.65625,0.013916015625,0.98974609375,0.065673828125,0.3967284858226776,0.4577636420726776,-1.5258787870407104,73.33333587646484,205506.0,1.0
14954.3377698,294811.03125,294592.15625,325738.34375,319054.90625,284997.375,255486.703125,221179.015625,245295.125,0.011962890625,0.99267578125,0.068115234375,0.4577636420726776,0.3967284858226776,-1.4038084745407104,73.33333587646484,205507.0,1.0
14954.3672465,294851.8125,294794.5,325910.1875,319090.9375,285101.96875,255545.546875,221239.546875,245312.28125,0.010498046875,0.994384765625,0.066162109375,0.4577636420726776,0.2441406100988388,-1.3122557401657104,73.33333587646484,205508.0,1.0
14954.3672514,294860.21875,295110.90625,326125.90625,319067.0625,285245.28125,255596.046875,221283.984375,245299.671875,0.0087890625,0.99609375,0.066650390625,0.3662109076976776,0.1220703050494194,-1.1291502714157104,73.33333587646484,205509.0,1.0
14954.3672526,294841.0625,295136.65625,326119.65625,319033.0,285257.71875,255584.796875,221269.859375,245281.796875,0.00830078125,0.9951171875,0.06884765625,0.3662109076976776,0.0,-1.0375975370407104,73.33333587646484,205510.0,1.0
14954.3672538,294813.625,294829.28125,325903.75,319025.84375,285116.71875,255522.46875,221207.625,245263.46875,0.007080078125,0.994384765625,0.0673828125,0.4272460639476776,-0.2441406100988388,-1.0070799589157104,73.33333587646484,205511.0,1.0
14954.3672551,294816.40625,294606.46875,325766.84375,319053.65625,285011.03125,255485.1875,221181.515625,245266.953125,0.008544921875,0.993408203125,0.06689453125,0.4577636420726776,-0.4577636420726776,-0.8544921278953552,73.33333587646484,205512.0,1.0
14954.3672563,294851.71875,294790.09375,325915.71875,319084.65625,285101.25,255532.578125,221237.390625,245280.359375,0.0126953125,0.993408203125,0.064697265625,0.3967284858226776,-0.7629393935203552,-0.6713866591453552,73.33333587646484,205513.0,1.0
14954.3672576,294861.375,295104.375,326127.0625,319066.53125,285249.03125,255592.125,221289.703125,245271.25,0.016357421875,0.989990234375,0.065673828125,0.4272460639476776,-0.9155272841453552,-0.5187987685203552,73.33333587646484,205514.0,1.0
14954.3672588,294832.5625,295122.4375,326108.03125,319027.09375,285252.875,255598.109375,221279.234375,245245.140625,0.014404296875,0.990234375,0.06396484375,0.5493163466453552,-1.0375975370407104,-0.4272460639476776,73.33333587646484,205515.0,1.0
14954.36726,294814.53125,294825.15625,325898.375,319024.75,285119.84375,255544.46875,221228.71875,245227.890625,0.013916015625,0.990478515625,0.064697265625,0.5798339247703552,-1.2512205839157104,-0.1831054538488388,73.33333587646484,205516.0,1.0
14954.3672612,294834.90625,294615.0625,325779.46875,319067.6875,285027.84375,255504.234375,221200.734375,245235.578125,0.010986328125,0.992431640625,0.06640625,0.6103515028953552,-1.3732908964157104,-0.1525878757238388,73.33333587646484,205517.0,1.0
14954.3672624,294873.09375,294811.3125,325947.71875,319104.34375,285129.0625,255549.734375,221254.921875,245245.9375,0.010498046875,0.991455078125,0.064453125,0.5187987685203552,-1.4953612089157104,-0.0915527269244194,73.33333587646484,205518.0,1.0
14954.3672636,294871.65625,295108.03125,326141.5625,319075.1875,285261.375,255605.984375,221300.96875,245220.828125,0.01318359375,0.9892578125,0.067138671875,0.4882812201976776,-1.7089842557907104,-0.1220703050494194,73.33333587646484,205519.0,1.0
14954.3672649,294839.28125,295122.25,326117.875,319029.6875,285256.375,255593.640625,221273.078125,245167.984375,0.015869140625,0.987548828125,0.065673828125,0.7019042372703552,-1.7700194120407104,-0.0610351525247097,73.33333587646484,205520.0,1.0
14954.3672663,294809.0625,294815.59375,325896.6875,319017.78125,285108.21875,255520.59375,221195.015625,245114.0625,0.01904296875,0.98388671875,0.065185546875,0.8239745497703552,-1.8920897245407104,-0.1831054538488388,73.33333587646484,205521.0,1.0
14954.3902632,294820.5,294600.125,325763.90625,319051.3125,285008.8125,255490.203125,221171.234375,245083.140625,0.018310546875,0.983154296875,0.06591796875,0.9155272841453552,-1.9531248807907104,-0.1525878757238388,73.33333587646484,205522.0,1.0
14954.4164361,294858.875,294798.34375,325934.75,319087.625,285115.125,255541.34375,221237.046875,245069.546875,0.02001953125,0.985107421875,0.06494140625,1.0681151151657104,-1.9226073026657104,-0.1831054538488388,73.33333587646484,205523.0,1.0
14954.4434403,294862.78125,295108.21875,326146.3125,319068.125,285260.03125,255588.90625,221284.34375,245046.03125,0.01806640625,0.988525390625,0.06689453125,1.2207030057907104,-1.8615721464157104,-0.2746581733226776,73.33333587646484,205524.0,1.0
14954.4434515,294830.53125,295118.9375,326117.15625,319025.125,285253.34375,255580.046875,221263.859375,245019.828125,0.017578125,0.989013671875,0.065185546875,1.2512205839157104,-2.014159917831421,-0.3356933295726776,73.33333587646484,205525.0,1.0
14954.4434529,294794.75,294803.6875,325877.71875,319006.875,285095.96875,255517.46875,221197.4375,244994.4375,0.017578125,0.9921875,0.06494140625,1.3427733182907104,-2.136230230331421,-0.6103515028953552,73.33333587646484,205526.0,1.0
14954.4434542,294806.03125,294578.46875,325735.46875,319038.90625,284989.75,255483.9375,221166.765625,244998.109375,0.01806640625,0.9931640625,0.063720703125,1.3122557401657104,-2.136230230331421,-0.7324218153953552,73.33333587646484,205527.0,1.0
14954.4434555,294847.96875,294781.71875,325905.875,319078.78125,285093.28125,255527.65625,221225.421875,245021.09375,0.02001953125,0.9931640625,0.063720703125,1.1901854276657104,-2.197265386581421,-0.9460448622703552,73.33333587646484,205528.0,1.0
14954.4434569,294861.71875,295111.71875,326135.9375,319065.90625,285252.875,255598.015625,221288.8125,245020.109375,0.0205078125,0.99072265625,0.065185546875,1.2207030057907104,-2.288818120956421,-1.0375975370407104,73.33333587646484,205529.0,1.0
14954.4434581,294831.40625,295122.53125,326112.25,319023.6875,285252.96875,255596.59375,221271.015625,244999.625,0.0234375,0.98974609375,0.0654296875,1.1596678495407104,-2.197265386581421,-1.0070799589157104,73.33333587646484,205530.0,1.0
14954.4434594,294808.96875,294820.3125,325892.375,319019.125,285112.34375,255529.890625,221210.390625,244994.4375,0.0234375,0.989990234375,0.062744140625,1.1901854276657104,-2.197265386581421,-1.1291502714157104,73.33333587646484,205531.0,1.0
14954.4434607,294818.53125,294599.21875,325757.90625,319049.96875,285008.09375,255483.671875,221180.171875,245005.625,0.024658203125,0.989501953125,0.0634765625,1.1901854276657104,-2.105712652206421,-1.2207030057907104,73.33333587646484,205532.0,1.0
14954.4434619,294854.03125,294786.53125,325911.53125,319082.875,285099.90625,255533.375,221236.765625,245035.75,0.025634765625,0.98681640625,0.066162109375,1.2817381620407104,-2.014159917831421,-1.2512205839157104,73.33333587646484,205533.0,1.0
14954.4434632,294862.78125,295100.625,326122.53125,319067.0625,285248.78125,255595.875,221290.6875,245043.53125,0.0234375,0.98681640625,0.0634765625,1.3427733182907104,-1.9226073026657104,-1.4038084745407104,73.33333587646484,205534.0,1.0
14954.4434647,294822.90625,295106.25,326088.53125,319016.4375,285236.0,255573.796875,221260.90625,245021.4375,0.02294921875,0.989501953125,0.06103515625,1.3427733182907104,-1.8310545682907104,-1.3732908964157104,73.33333587646484,205535.0,1.0
14954.4476839,294786.53125,294801.71875,325864.5625,319001.0625,285085.6875,255500.84375,221187.515625,245010.890625,0.022705078125,0.989990234375,0.061767578125,1.2817381620407104,-1.7395018339157104,-1.4038084745407104,73.33333587646484,205536.0,1.0
14954.4503441,294786.53125,294801.71875,325864.5625,319001.0625,285085.6875,255500.84375,221187.515625,245010.890625,0.022705078125,0.989990234375,0.061767578125,1.2817381620407104,-1.7395018339157104,-1.4038084745407104,73.33333587646484,205537.0,0.0
14954.4503459,294786.53125,294801.71875,325864.5625,319001.0625,285085.6875,255500.84375,221187.515625,245010.890625,0.022705078125,0.989990234375,0.061767578125,1.2817381620407104,-1.7395018339157104,-1.4038084745407104,73.33333587646484,205538.0,0.0
14954.4503461,294786.53125,294801.71875,325864.5625,319001.0625,285085.6875,255500.84375,221187.515625,245010.890625,0.022705078125,0.989990234375,0.061767578125,1.2817381620407104,-1.7395018339157104,-1.4038084745407104,73.33333587646484,205539.0,0.0
14954.4503463,294786.53125,294801.71875,325864.5625,319001.0625,285085.6875,255500.84375,221187.515625,245010.890625,0.022705078125,0.989990234375,0.061767578125,1.2817381620407104,-1.7395018339157104,-1.4038084745407104,73.33333587646484,205540.0,0.0
14954.4503465,294801.1875,294813.96875,325882.46875,319020.75,285110.5625,255529.984375,221212.0,245044.78125,0.0185546875,0.9912109375,0.06298828125,1.2817381620407104,-1.5869139432907104,-1.1596678495407104,73.33333587646484,205541.0,1.0
14954.4539313,294805.75,294594.75,325747.8125,319044.0625,285003.8125,255479.921875,221174.1875,245045.140625,0.017822265625,0.99169921875,0.064208984375,1.1596678495407104,-1.5869139432907104,-1.1596678495407104,73.33333587646484,205542.0,1.0
14954.4570341,294843.5,294780.4375,325904.375,319073.21875,285095.34375,255517.015625,221221.84375,245063.109375,0.016357421875,0.9921875,0.0634765625,1.1291502714157104,-1.5563963651657104,-1.0681151151657104,73.33333587646484,205543.0,1.0
14954.4570379,294852.78125,295091.84375,326112.15625,319056.3125,285237.59375,255570.84375,221274.328125,245063.015625,0.01611328125,0.99169921875,0.06494140625,1.0986326932907104,-1.6174315214157104,-1.1596678495407104,73.33333587646484,205544.0,1.0
14954.4589361,294818.4375,295105.4375,326086.75,319011.71875,285232.875,255557.609375,221250.90625,245037.09375,0.013671875,0.9921875,0.06201171875,1.0681151151657104,-1.6479490995407104,-1.2207030057907104,73.33333587646484,205545.0,1.0
14954.4840127,294784.84375,294797.53125,325862.78125,319000.1875,285086.0625,255502.53125,221189.03125,245024.390625,0.013671875,0.989990234375,0.063720703125,0.9460448622703552,-1.7395018339157104,-1.0070799589157104,73.33333587646484,205546.0,1.0
14954.5090516,294793.25,294580.0,325735.46875,319033.625,284990.03125,255471.78125,221166.40625,245037.984375,0.01416015625,0.989013671875,0.06005859375,0.9155272841453552,-1.8005369901657104,-0.9765624403953552,73.33333587646484,205547.0,1.0
14954.5339891,294834.375,294777.0625,325906.25,319071.0625,285091.96875,255511.828125,221218.625,245063.46875,0.01611328125,0.989990234375,0.0576171875,0.8239745497703552,-1.9226073026657104,-0.9460448622703552,73.33333587646484,205548.0,1.0
14954.5403144,294851.53125,295094.4375,326119.9375,319061.96875,285243.40625,255572.453125,221275.84375,245069.984375,0.016845703125,0.990478515625,0.060546875,0.7324218153953552,-1.8920897245407104,-0.9460448622703552,73.33333587646484,205549.0,1.0
14954.5433095,294812.28125,295098.90625,326079.4375,319009.21875,285230.09375,255560.109375,221247.953125,245038.515625,0.0166015625,0.991943359375,0.059814453125,0.7934569716453552,-1.8615721464157104,-0.9460448622703552,73.33333587646484,205550.0,1.0
14954.5433126,294778.125,294787.59375,325846.53125,318991.78125,285074.53125,255493.234375,221175.703125,245020.015625,0.0166015625,0.99365234375,0.0595703125,0.7934569716453552,-2.044677495956421,-1.0070799589157104,73.33333587646484,205551.0,1.0
14954.5433139,294788.3125,294570.4375,325715.53125,319023.0625,284973.40625,255449.15625,221149.25,245023.046875,0.01953125,0.992431640625,0.060302734375,0.7629393935203552,-2.136230230331421,-0.9460448622703552,73.33333587646484,205552.0,1.0
14954.5457642,294831.6875,294773.21875,325890.0625,319063.3125,285084.34375,255515.3125,221219.0625,245049.703125,0.019775390625,0.99169921875,0.06005859375,0.7324218153953552,-2.136230230331421,-0.8850097060203552,73.33333587646484,205553.0,1.0
14954.5457684,294852.5,295102.125,326119.3125,319057.5625,285245.03125,255585.765625,221284.34375,245057.75,0.020263671875,0.989013671875,0.06005859375,0.5493163466453552,-2.105712652206421,-0.9155272841453552,73.33333587646484,205554.0,1.0
14954.5476823,294820.78125,295107.875,326090.59375,319010.625,285239.375,255557.78125,221251.796875,245031.546875,0.0205078125,0.989501953125,0.061767578125,0.3967284858226776,-2.105712652206421,-0.9155272841453552,73.33333587646484,205555.0,1.0
14954.5752484,294820.78125,295107.875,326090.59375,319010.625,285239.375,255557.78125,221251.796875,245031.546875,0.0205078125,0.989501953125,0.061767578125,0.3967284858226776,-2.105712652206421,-0.9155272841453552,73.33333587646484,205556.0,0.0
14954.57525,294820.78125,295107.875,326090.59375,319010.625,285239.375,255557.78125,221251.796875,245031.546875,0.0205078125,0.989501953125,0.061767578125,0.3967284858226776,-2.105712652206421,-0.9155272841453552,73.33333587646484,205557.0,0.0
14954.5752502,294820.78125,295107.875,326090.59375,319010.625,285239.375,255557.78125,221251.796875,245031.546875,0.0205078125,0.989501953125,0.061767578125,0.3967284858226776,-2.105712652206421,-0.9155272841453552,73.33333587646484,205558.0,0.0
14954.5752504,294820.78125,295107.875,326090.59375,319010.625,285239.375,255557.78125,221251.796875,245031.546875,0.0205078125,0.989501953125,0.061767578125,0.3967284858226776,-2.105712652206421,-0.9155272841453552,73.33333587646484,205559.0,0.0
14954.5752506,294820.78125,295107.875,326090.59375,319010.625,285239.375,255557.78125,221251.796875,245031.546875,0.0205078125,0.989501953125,0.061767578125,0.3967284858226776,-2.105712652206421,-0.9155272841453552,73.33333587646484,205560.0,0.0
14954.5752508,294820.78125,295107.875,326090.59375,319010.625,285239.375,255557.78125,221251.796875,245031.546875,0.0205078125,0.989501953125,0.061767578125,0.3967284858226776,-2.105712652206421,-0.9155272841453552,73.33333587646484,205561.0,0.0
14954.575251,294820.78125,295107.875,326090.59375,319010.625,285239.375,255557.78125,221251.796875,245031.546875,0.0205078125,0.989501953125,0.061767578125,0.3967284858226776,-2.105712652206421,-0.9155272841453552,73.33333587646484,205562.0,0.0
14954.5752512,294820.78125,295107.875,326090.59375,319010.625,285239.375,255557.78125,221251.796875,245031.546875,0.0205078125,0.989501953125,0.061767578125,0.3967284858226776,-2.105712652206421,-0.9155272841453552,73.33333587646484,205563.0,0.0
14954.5752513,294820.78125,295107.875,326090.59375,319010.625,285239.375,255557.78125,221251.796875,245031.546875,0.0205078125,0.989501953125,0.061767578125,0.3967284858226776,-2.105712652206421,-0.9155272841453552,73.33333587646484,205564.0,0.0
14954.5752515,294820.78125,295107.875,326090.59375,319010.625,285239.375,255557.78125,221251.796875,245031.546875,0.0205078125,0.989501953125,0.061767578125,0.3967284858226776,-2.105712652206421,-0.9155272841453552,73.33333587646484,205565.0,0.0
14954.5752517,294820.78125,295107.875,326090.59375,319010.625,285239.375,255557.78125,221251.796875,245031.546875,0.0205078125,0.989501953125,0.061767578125,0.3967284858226776,-2.105712652206421,-0.9155272841453552,73.33333587646484,205566.0,0.0
14954.5752519,294820.78125,295107.875,326090.59375,319010.625,285239.375,255557.78125,221251.796875,245031.546875,0.0205078125,0.989501953125,0.061767578125,0.3967284858226776,-2.105712652206421,-0.9155272841453552,73.33333587646484,205567.0,0.0
14954.575252,294820.78125,295107.875,326090.59375,319010.625,285239.375,255557.78125,221251.796875,245031.546875,0.0205078125,0.989501953125,0.061767578125,0.3967284858226776,-2.105712652206421,-0.9155272841453552,73.33333587646484,205568.0,0.0
14954.5752522,294820.78125,295107.875,326090.59375,319010.625,285239.375,255557.78125,221251.796875,245031.546875,0.0205078125,0.989501953125,0.061767578125,0.3967284858226776,-2.105712652206421,-0.9155272841453552,73.33333587646484,205569.0,0.0
14954.5752524,294820.78125,295107.875,326090.59375,319010.625,285239.375,255557.78125,221251.796875,245031.546875,0.0205078125,0.989501953125,0.061767578125,0.3967284858226776,-2.105712652206421,-0.9155272841453552,73.33333587646484,205570.0,0.0
14954.5752526,294820.78125,295107.875,326090.59375,319010.625,285239.375,255557.78125,221251.796875,245031.546875,0.0205078125,0.989501953125,0.061767578125,0.3967284858226776,-2.105712652206421,-0.9155272841453552,73.33333587646484,205571.0,0.0
14954.5752527,294820.78125,295107.875,326090.59375,319010.625,285239.375,255557.78125,221251.796875,245031.546875,0.0205078125,0.989501953125,0.061767578125,0.3967284858226776,-2.105712652206421,-0.9155272841453552,73.33333587646484,205572.0,0.0
14954.5752529,294820.78125,295107.875,326090.59375,319010.625,285239.375,255557.78125,221251.796875,245031.546875,0.0205078125,0.989501953125,0.061767578125,0.3967284858226776,-2.105712652206421,-0.9155272841453552,73.33333587646484,205573.0,0.0
14954.5752531,294820.78125,295107.875,326090.59375,319010.625,285239.375,255557.78125,221251.796875,245031.546875,0.0205078125,0.989501953125,0.061767578125,0.3967284858226776,-2.105712652206421,-0.9155272841453552,73.33333587646484,205574.0,0.0
14954.5752533,294820.78125,295107.875,326090.59375,319010.625,285239.375,255557.78125,221251.796875,245031.546875,0.0205078125,0.989501953125,0.061767578125,0.3967284858226776,-2.105712652206421,-0.9155272841453552,73.33333587646484,205575.0,0.0
14954.5752535,294820.78125,295107.875,326090.59375,319010.625,285239.375,255557.78125,221251.796875,245031.546875,0.0205078125,0.989501953125,0.061767578125,0.3967284858226776,-2.105712652206421,-0.9155272841453552,73.33333587646484,205576.0,0.0
14954.5752537,294820.78125,295107.875,326090.59375,319010.625,285239.375,255557.78125,221251.796875,245031.546875,0.0205078125,0.989501953125,0.061767578125,0.3967284858226776,-2.105712652206421,-0.9155272841453552,73.33333587646484,205577.0,0.0
14954.5752539,294820.78125,295107.875,326090.59375,319010.625,285239.375,255557.78125,221251.796875,245031.546875,0.0205078125,0.989501953125,0.061767578125,0.3967284858226776,-2.105712652206421,-0.9155272841453552,73.33333587646484,205578.0,0.0
14954.575254,294820.78125,295107.875,326090.59375,319010.625,285239.375,255557.78125,221251.796875,245031.546875,0.0205078125,0.989501953125,0.061767578125,0.3967284858226776,-2.105712652206421,-0.9155272841453552,73.33333587646484,205579.0,0.0
14954.5752542,294820.78125,295107.875,326090.59375,319010.625,285239.375,255557.78125,221251.796875,245031.546875,0.0205078125,0.989501953125,0.061767578125,0.3967284858226776,-2.105712652206421,-0.9155272841453552,73.33333587646484,205580.0,0.0
14954.5752544,294820.78125,295107.875,326090.59375,319010.625,285239.375,255557.78125,221251.796875,245031.546875,0.0205078125,0.989501953125,0.061767578125,0.3967284858226776,-2.105712652206421,-0.9155272841453552,73.33333587646484,205581.0,0.0
14954.5752546,294820.78125,295107.875,326090.59375,319010.625,285239.375,255557.78125,221251.796875,245031.546875,0.0205078125,0.989501953125,0.061767578125,0.3967284858226776,-2.105712652206421,-0.9155272841453552,73.33333587646484,205582.0,0.0
14954.5752547,294820.78125,295107.875,326090.59375,319010.625,285239.375,255557.78125,221251.796875,245031.546875,0.0205078125,0.989501953125,0.061767578125,0.3967284858226776,-2.105712652206421,-0.9155272841453552,73.33333587646484,205583.0,0.0
14954.5752549,294820.78125,295107.875,326090.59375,319010.625,285239.375,255557.78125,221251.796875,245031.546875,0.0205078125,0.989501953125,0.061767578125,0.3967284858226776,-2.105712652206421,-0.9155272841453552,73.33333587646484,205584.0,0.0
14954.5752551,294820.78125,295107.875,326090.59375,319010.625,285239.375,255557.78125,221251.796875,245031.546875,0.0205078125,0.989501953125,0.061767578125,0.3967284858226776,-2.105712652206421,-0.9155272841453552,73.33333587646484,205585.0,0.0
14954.5752552,294820.78125,295107.875,326090.59375,319010.625,285239.375,255557.78125,221251.796875,245031.546875,0.0205078125,0.989501953125,0.061767578125,0.3967284858226776,-2.105712652206421,-0.9155272841453552,73.33333587646484,205586.0,0.0
14954.5752554,294820.78125,295107.875,326090.59375,319010.625,285239.375,255557.78125,221251.796875,245031.546875,0.0205078125,0.989501953125,0.061767578125,0.3967284858226776,-2.105712652206421,-0.9155272841453552,73.33333587646484,205587.0,0.0
14954.5752556,294820.78125,295107.875,326090.59375,319010.625,285239.375,255557.78125,221251.796875,245031.546875,0.0205078125,0.989501953125,0.061767578125,0.3967284858226776,-2.105712652206421,-0.9155272841453552,73.33333587646484,205588.0,0.0
14954.5752558,294820.78125,295107.875,326090.59375,319010.625,285239.375,255557.78125,221251.796875,245031.546875,0.0205078125,0.989501953125,0.061767578125,0.3967284858226776,-2.105712652206421,-0.9155272841453552,73.33333587646484,205589.0,0.0
14954.575256,294820.78125,295107.875,326090.59375,319010.625,285239.375,255557.78125,221251.796875,245031.546875,0.0205078125,0.989501953125,0.061767578125,0.3967284858226776,-2.105712652206421,-0.9155272841453552,73.33333587646484,205590.0,0.0
14954.5752561,294820.78125,295107.875,326090.59375,319010.625,285239.375,255557.78125,221251.796875,245031.546875,0.0205078125,0.989501953125,0.061767578125,0.3967284858226776,-2.105712652206421,-0.9155272841453552,73.33333587646484,205591.0,0.0
14954.5752563,294820.78125,295107.875,326090.59375,319010.625,285239.375,255557.78125,221251.796875,245031.546875,0.0205078125,0.989501953125,0.061767578125,0.3967284858226776,-2.105712652206421,-0.9155272841453552,73.33333587646484,205592.0,0.0
14954.5752565,294820.78125,295107.875,326090.59375,319010.625,285239.375,255557.78125,221251.796875,245031.546875,0.0205078125,0.989501953125,0.061767578125,0.3967284858226776,-2.105712652206421,-0.9155272841453552,73.33333587646484,205593.0,0.0
14954.5752566,294820.78125,295107.875,326090.59375,319010.625,285239.375,255557.78125,221251.796875,245031.546875,0.0205078125,0.989501953125,0.061767578125,0.3967284858226776,-2.105712652206421,-0.9155272841453552,73.33333587646484,205594.0,0.0
14954.5752568,294820.78125,295107.875,326090.59375,319010.625,285239.375,255557.78125,221251.796875,245031.546875,0.0205078125,0.989501953125,0.061767578125,0.3967284858226776,-2.105712652206421,-0.9155272841453552,73.33333587646484,205595.0,0.0
14954.575257,294820.78125,295107.875,326090.59375,319010.625,285239.375,255557.78125,221251.796875,245031.546875,0.0205078125,0.989501953125,0.061767578125,0.3967284858226776,-2.105712652206421,-0.9155272841453552,73.33333587646484,205596.0,0.0
14954.5752572,294791.71875,294563.46875,325704.625,319014.21875,284960.96875,255436.015625,221136.015625,245008.03125,0.020751953125,0.98876953125,0.067138671875,-0.3356933295726776,-1.2512205839157104,-0.5493163466453552,73.33333587646484,205597.0,1.0
14954.5752619,294834.8125,294763.71875,325866.8125,319053.375,285063.6875,255495.03125,221202.265625,245029.125,0.021484375,0.98779296875,0.068603515625,-0.2746581733226776,-1.2512205839157104,-0.6103515028953552,73.33333587646484,205598.0,1.0
14954.5752632,294858.0625,295105.96875,326103.5625,319051.21875,285231.0625,255570.390625,221270.84375,245038.78125,0.019775390625,0.98828125,0.068359375,-0.3051757514476776,-1.2207030057907104,-0.6408690810203552,73.33333587646484,205599.0,1.0
14954.5752644,294823.71875,295119.75,326087.03125,319006.25,285231.34375,255546.703125,221245.09375,245014.296875,0.0185546875,0.987060546875,0.0673828125,-0.1220703050494194,-1.2207030057907104,-0.5493163466453552,73.33333587646484,205600.0,1.0
14954.5752657,294786.34375,294797.71875,325849.8125,318988.8125,285072.90625,255469.90625,221170.34375,244995.34375,0.01953125,0.985595703125,0.06787109375,0.03051757626235485,-1.1901854276657104,-0.5493163466453552,73.33333587646484,205601.0,1.0
14954.5752669,294799.21875,294575.96875,325713.3125,319022.53125,284968.21875,255435.84375,221145.484375,245005.53125,0.021240234375,0.984619140625,0.0673828125,0.0915527269244194,-1.2512205839157104,-0.6103515028953552,73.33333587646484,205602.0,1.0
14954.5752681,294836.40625,294772.5,325880.03125,319056.9375,285069.6875,255491.265625,221208.34375,245031.09375,0.020751953125,0.988525390625,0.067626953125,0.1220703050494194,-1.2817381620407104,-0.5798339247703552,73.33333587646484,205603.0,1.0
14954.5752693,294847.40625,295087.125,326092.46875,319043.1875,285218.1875,255554.5625,221263.953125,245034.40625,0.022216796875,0.989013671875,0.0693359375,0.1525878757238388,-1.2512205839157104,-0.6408690810203552,73.33333587646484,205604.0,1.0
14954.6010653,294813.09375,295092.21875,326064.21875,318999.28125,285211.03125,255537.3125,221237.390625,245009.46875,0.02099609375,0.989501953125,0.07080078125,0.3051757514476776,-1.2512205839157104,-0.6713866591453552,73.33333587646484,205605.0,1.0
14954.6010743,294813.09375,295092.21875,326064.21875,318999.28125,285211.03125,255537.3125,221237.390625,245009.46875,0.02099609375,0.989501953125,0.07080078125,0.3051757514476776,-1.2512205839157104,-0.6713866591453552,73.33333587646484,205606.0,0.0
14954.6010745,294813.09375,295092.21875,326064.21875,318999.28125,285211.03125,255537.3125,221237.390625,245009.46875,0.02099609375,0.989501953125,0.07080078125,0.3051757514476776,-1.2512205839157104,-0.6713866591453552,73.33333587646484,205607.0,0.0
14954.6010747,294813.09375,295092.21875,326064.21875,318999.28125,285211.03125,255537.3125,221237.390625,245009.46875,0.02099609375,0.989501953125,0.07080078125,0.3051757514476776,-1.2512205839157104,-0.6713866591453552,73.33333587646484,205608.0,0.0
14954.6010749,294813.09375,295092.21875,326064.21875,318999.28125,285211.03125,255537.3125,221237.390625,245009.46875,0.02099609375,0.989501953125,0.07080078125,0.3051757514476776,-1.2512205839157104,-0.6713866591453552,73.33333587646484,205609.0,0.0
14954.6010751,294813.09375,295092.21875,326064.21875,318999.28125,285211.03125,255537.3125,221237.390625,245009.46875,0.02099609375,0.989501953125,0.07080078125,0.3051757514476776,-1.2512205839157104,-0.6713866591453552,73.33333587646484,205610.0,0.0
14954.6010753,294813.09375,295092.21875,326064.21875,318999.28125,285211.03125,255537.3125,221237.390625,245009.46875,0.02099609375,0.989501953125,0.07080078125,0.3051757514476776,-1.2512205839157104,-0.6713866591453552,73.33333587646484,205611.0,0.0
14954.6010754,294813.09375,295092.21875,326064.21875,318999.28125,285211.03125,255537.3125,221237.390625,245009.46875,0.02099609375,0.989501953125,0.07080078125,0.3051757514476776,-1.2512205839157104,-0.6713866591453552,73.33333587646484,205612.0,0.0
14954.6010756,294813.09375,295092.21875,326064.21875,318999.28125,285211.03125,255537.3125,221237.390625,245009.46875,0.02099609375,0.989501953125,0.07080078125,0.3051757514476776,-1.2512205839157104,-0.6713866591453552,73.33333587646484,205613.0,0.0
14954.6010758,294813.09375,295092.21875,326064.21875,318999.28125,285211.03125,255537.3125,221237.390625,245009.46875,0.02099609375,0.989501953125,0.07080078125,0.3051757514476776,-1.2512205839157104,-0.6713866591453552,73.33333587646484,205614.0,0.0
14954.6010761,294813.09375,295092.21875,326064.21875,318999.28125,285211.03125,255537.3125,221237.390625,245009.46875,0.02099609375,0.989501953125,0.07080078125,0.3051757514476776,-1.2512205839157104,-0.6713866591453552,73.33333587646484,205615.0,0.0
14954.6010764,294813.09375,295092.21875,326064.21875,318999.28125,285211.03125,255537.3125,221237.390625,245009.46875,0.02099609375,0.989501953125,0.07080078125,0.3051757514476776,-1.2512205839157104,-0.6713866591453552,73.33333587646484,205616.0,0.0
14954.6010766,294813.09375,295092.21875,326064.21875,318999.28125,285211.03125,255537.3125,221237.390625,245009.46875,0.02099609375,0.989501953125,0.07080078125,0.3051757514476776,-1.2512205839157104,-0.6713866591453552,73.33333587646484,205617.0,0.0
14954.6010768,294813.09375,295092.21875,326064.21875,318999.28125,285211.03125,255537.3125,221237.390625,245009.46875,0.02099609375,0.989501953125,0.07080078125,0.3051757514476776,-1.2512205839157104,-0.6713866591453552,73.33333587646484,205618.0,0.0
14954.601077,294813.09375,295092.21875,326064.21875,318999.28125,285211.03125,255537.3125,221237.390625,245009.46875,0.02099609375,0.989501953125,0.07080078125,0.3051757514476776,-1.2512205839157104,-0.6713866591453552,73.33333587646484,205619.0,0.0
14954.6010772,294813.09375,295092.21875,326064.21875,318999.28125,285211.03125,255537.3125,221237.390625,245009.46875,0.02099609375,0.989501953125,0.07080078125,0.3051757514476776,-1.2512205839157104,-0.6713866591453552,73.33333587646484,205620.0,0.0
14954.6010774,294813.09375,295092.21875,326064.21875,318999.28125,285211.03125,255537.3125,221237.390625,245009.46875,0.02099609375,0.989501953125,0.07080078125,0.3051757514476776,-1.2512205839157104,-0.6713866591453552,73.33333587646484,205621.0,0.0
14954.6010775,294813.09375,295092.21875,326064.21875,318999.28125,285211.03125,255537.3125,221237.390625,245009.46875,0.02099609375,0.989501953125,0.07080078125,0.3051757514476776,-1.2512205839157104,-0.6713866591453552,73.33333587646484,205622.0,0.0
14954.6010777,294813.09375,295092.21875,326064.21875,318999.28125,285211.03125,255537.3125,221237.390625,245009.46875,0.02099609375,0.989501953125,0.07080078125,0.3051757514476776,-1.2512205839157104,-0.6713866591453552,73.33333587646484,205623.0,0.0
14954.6010779,294813.09375,295092.21875,326064.21875,318999.28125,285211.03125,255537.3125,221237.390625,245009.46875,0.02099609375,0.989501953125,0.07080078125,0.3051757514476776,-1.2512205839157104,-0.6713866591453552,73.33333587646484,205624.0,0.0
14954.6010781,294813.09375,295092.21875,326064.21875,318999.28125,285211.03125,255537.3125,221237.390625,245009.46875,0.02099609375,0.989501953125,0.07080078125,0.3051757514476776,-1.2512205839157104,-0.6713866591453552,73.33333587646484,205625.0,0.0
14954.6010782,294813.09375,295092.21875,326064.21875,318999.28125,285211.03125,255537.3125,221237.390625,245009.46875,0.02099609375,0.989501953125,0.07080078125,0.3051757514476776,-1.2512205839157104,-0.6713866591453552,73.33333587646484,205626.0,0.0
14954.6010785,294813.09375,295092.21875,326064.21875,318999.28125,285211.03125,255537.3125,221237.390625,245009.46875,0.02099609375,0.989501953125,0.07080078125,0.3051757514476776,-1.2512205839157104,-0.6713866591453552,73.33333587646484,205627.0,0.0
14954.6010786,294813.09375,295092.21875,326064.21875,318999.28125,285211.03125,255537.3125,221237.390625,245009.46875,0.02099609375,0.989501953125,0.07080078125,0.3051757514476776,-1.2512205839157104,-0.6713866591453552,73.33333587646484,205628.0,0.0
14954.6010788,294841.78125,295072.375,326078.53125,319029.0625,285212.03125,255530.609375,221247.328125,245020.640625,0.02001953125,0.988037109375,0.061767578125,0.5187987685203552,-1.6479490995407104,-0.8850097060203552,73.33333587646484,205629.0,1.0
14954.6010804,294820.59375,295099.0,326066.5625,318994.8125,285221.0625,255536.234375,221236.859375,245010.265625,0.018798828125,0.98681640625,0.06494140625,0.6408690810203552,-1.6479490995407104,-0.9155272841453552,73.33333587646484,205630.0,1.0
14954.6252539,294786.0,294788.78125,325846.25,318981.125,285073.53125,255467.046875,221169.984375,244997.390625,0.019775390625,0.987060546875,0.06298828125,0.6408690810203552,-1.6174315214157104,-0.9460448622703552,73.33333587646484,205631.0,1.0
14954.6765349,294799.21875,294572.84375,325715.71875,319016.09375,284976.625,255439.765625,221152.8125,245011.78125,0.020751953125,0.9873046875,0.061767578125,0.6713866591453552,-1.6784666776657104,-1.0070799589157104,73.33333587646484,205632.0,1.0
14954.7014715,294838.03125,294772.9375,325880.40625,319049.0,285079.34375,255496.1875,221212.28125,245033.78125,0.02099609375,0.989990234375,0.06689453125,0.6713866591453552,-1.7395018339157104,-0.9765624403953552,73.33333587646484,205633.0,1.0
14954.7265588,294844.65625,295079.25,326085.40625,319028.34375,285219.28125,255548.671875,221259.84375,245030.203125,0.022216796875,0.98828125,0.063232421875,0.7324218153953552,-1.7700194120407104,-1.0070799589157104,73.33333587646484,205634.0,1.0
14954.7603075,294817.8125,295094.1875,326054.46875,318985.59375,285213.5625,255536.234375,221236.953125,245010.796875,0.02099609375,0.990478515625,0.064453125,0.7019042372703552,-1.7395018339157104,-0.9460448622703552,73.33333587646484,205635.0,1.0
14954.7927936,294778.65625,294778.65625,325817.71875,318967.90625,285059.6875,255468.46875,221167.03125,244994.0,0.021728515625,0.990234375,0.064697265625,0.7019042372703552,-1.7395018339157104,-0.8544921278953552,73.33333587646484,205636.0,1.0
14954.8177843,294793.6875,294568.65625,325699.09375,319009.84375,284971.96875,255449.0625,221159.078125,245012.765625,0.0244140625,0.992919921875,0.06640625,0.7324218153953552,-1.7395018339157104,-0.8239745497703552,73.33333587646484,205637.0,1.0
14954.8428082,294828.5625,294766.15625,325869.21875,319044.0,285074.0625,255496.546875,221218.625,245035.390625,0.02294921875,0.993896484375,0.0634765625,0.6408690810203552,-1.7700194120407104,-0.8850097060203552,73.33333587646484,205638.0,1.0
14954.8677831,294835.875,295084.96875,326090.15625,319027.71875,285225.34375,255554.84375,221270.484375,245033.609375,0.024169921875,0.991455078125,0.064208984375,0.6408690810203552,-1.7700194120407104,-0.8544921278953552,73.33333587646484,205639.0,1.0
14954.9252836,294806.03125,295093.75,326067.96875,318986.9375,285225.0,255542.953125,221251.609375,245015.0,0.025146484375,0.9912109375,0.064453125,0.5798339247703552,-1.6174315214157104,-0.8544921278953552,73.33333587646484,205640.0,1.0
14954.9508569,294776.53125,294793.6875,325851.78125,318975.3125,285082.9375,255478.3125,221187.15625,245002.40625,0.025146484375,0.990478515625,0.06396484375,0.6408690810203552,-1.5563963651657104,-0.8544921278953552,73.33333587646484,205641.0,1.0
14954.9508624,294787.0625,294574.0,325720.53125,319009.125,284984.84375,255448.796875,221161.578125,245015.984375,0.022705078125,0.9912109375,0.064697265625,0.4882812201976776,-1.6174315214157104,-0.7324218153953552,73.33333587646484,205642.0,1.0
14954.9770536,294817.09375,294755.6875,325862.78125,319033.25,285069.25,255492.4375,221214.421875,245034.765625,0.02294921875,0.98876953125,0.064453125,0.3967284858226776,-1.5869139432907104,-0.7019042372703552,73.33333587646484,205643.0,1.0
14954.9770591,294830.15625,295067.71875,326066.0,319016.53125,285213.0,255552.953125,221267.34375,245030.03125,0.02392578125,0.989013671875,0.061767578125,0.4272460639476776,-1.4648436307907104,-0.7019042372703552,73.33333587646484,205644.0,1.0
14954.9770604,294806.90625,295086.65625,326047.25,318981.21875,285217.84375,255553.59375,221256.171875,245015.8125,0.024658203125,0.989501953125,0.0634765625,0.3967284858226776,-1.4038084745407104,-0.7629393935203552,73.33333587646484,205645.0,1.0
14954.9770618,294769.8125,294770.71875,325824.6875,318964.0625,285067.28125,255473.828125,221177.671875,244994.359375,0.0234375,0.986083984375,0.064697265625,0.4272460639476776,-1.2817381620407104,-0.7934569716453552,73.33333587646484,205646.0,1.0
14955.028124,294779.125,294551.125,325695.34375,318996.34375,284961.96875,255423.046875,221138.328125,244996.671875,0.023193359375,0.984619140625,0.061767578125,0.4577636420726776,-1.1291502714157104,-0.8239745497703552,73.33333587646484,205647.0,1.0
14955.0281329,294815.59375,294741.375,325853.40625,319026.375,285053.40625,255458.1875,221184.734375,245010.71875,0.02294921875,0.98583984375,0.060546875,0.4577636420726776,-1.1291502714157104,-0.9155272841453552,73.33333587646484,205648.0,1.0
14955.0281341,294824.96875,295058.34375,326067.0,319009.65625,285200.9375,255514.6875,221236.765625,245010.71875,0.024658203125,0.986083984375,0.06298828125,0.3967284858226776,-1.1291502714157104,-1.0375975370407104,73.33333587646484,205649.0,1.0
14955.0281354,294795.21875,295070.03125,326045.4375,318965.5,285200.21875,255510.765625,221221.578125,244989.25,0.023681640625,0.987060546875,0.063232421875,0.4272460639476776,-1.1901854276657104,-1.0681151151657104,73.33333587646484,205650.0,1.0
14955.0281366,294765.875,294758.0,325815.5,318958.78125,285051.09375,255459.796875,221163.09375,244984.15625,0.022705078125,0.98681640625,0.06201171875,0.4577636420726776,-1.0681151151657104,-1.0986326932907104,73.33333587646484,205651.0,1.0
14955.0281379,294785.90625,294554.15625,325693.90625,319005.375,284965.4375,255439.765625,221152.015625,245011.34375,0.02197265625,0.98681640625,0.060791015625,0.6103515028953552,-1.0375975370407104,-1.1901854276657104,73.33333587646484,205652.0,1.0
14955.0281391,294826.9375,294755.96875,325860.09375,319041.46875,285067.8125,255486.53125,221211.296875,245037.09375,0.02099609375,0.989013671875,0.06298828125,0.7324218153953552,-0.9460448622703552,-1.2207030057907104,73.33333587646484,205653.0,1.0
14955.0281404,294831.875,295069.59375,326065.65625,319022.1875,285210.40625,255536.78125,221259.03125,245032.171875,0.018798828125,0.991943359375,0.064453125,0.6408690810203552,-0.9155272841453552,-1.3122557401657104,73.33333587646484,205654.0,1.0
14955.0281416,294809.78125,295099.46875,326056.09375,318991.78125,285222.03125,255541.421875,221250.0,245017.0625,0.020751953125,0.995361328125,0.066650390625,0.6408690810203552,-1.0070799589157104,-1.3427733182907104,73.33333587646484,205655.0,1.0
14955.0490315,294783.40625,294797.25,325839.46875,318984.25,285080.5,255482.953125,221184.640625,245002.484375,0.01953125,0.99755859375,0.067626953125,0.4272460639476776,-1.1291502714157104,-1.4038084745407104,73.33333587646484,205656.0,1.0
14955.05151,294791.0,294573.84375,325709.1875,319013.78125,284977.34375,255441.015625,221153.625,245011.96875,0.018798828125,0.9951171875,0.064208984375,0.3967284858226776,-1.1901854276657104,-1.2207030057907104,73.33333587646484,205657.0,1.0
14955.0550809,294827.3125,294760.96875,325872.625,319044.78125,285074.875,255488.59375,221207.71875,245035.21875,0.018798828125,0.996337890625,0.067138671875,0.3356933295726776,-1.1291502714157104,-1.4038084745407104,73.33333587646484,205658.0,1.0
14955.0550862,294826.9375,295066.71875,326071.03125,319017.0,285209.4375,255539.8125,221252.234375,245022.15625,0.01904296875,0.995849609375,0.068115234375,0.2136230319738388,-1.1901854276657104,-1.4038084745407104,73.33333587646484,205659.0,1.0
14955.0550876,294808.15625,295097.40625,326059.5,318981.84375,285220.25,255543.578125,221246.25,245008.921875,0.0185546875,0.99462890625,0.06396484375,0.0610351525247097,-1.2817381620407104,-1.3732908964157104,73.33333587646484,205660.0,1.0
14955.055089,294788.15625,294799.6875,325846.4375,318979.71875,285084.25,255484.109375,221189.390625,245004.28125,0.018798828125,0.994873046875,0.064697265625,0.03051757626235485,-1.3732908964157104,-1.2817381620407104,73.33333587646484,205661.0,1.0
14955.0565103,294798.15625,294578.84375,325714.09375,319011.09375,284982.78125,255440.390625,221162.921875,245015.984375,0.0166015625,0.99169921875,0.06494140625,-0.1525878757238388,-1.4953612089157104,-1.2512205839157104,73.33333587646484,205662.0,1.0
14955.0615154,294834.1875,294774.1875,325880.21875,319039.96875,285079.78125,255480.890625,221211.734375,245032.171875,0.015625,0.99267578125,0.0673828125,-0.2441406100988388,-1.5563963651657104,-1.0681151151657104,73.33333587646484,205663.0,1.0
14955.064029,294845.1875,295092.9375,326088.625,319023.15625,285223.375,255541.421875,221263.859375,245030.390625,0.015625,0.99072265625,0.06787109375,-0.2441406100988388,-1.7089842557907104,-1.0070799589157104,73.33333587646484,205664.0,1.0
14955.0665314,294813.1875,295104.71875,326061.8125,318982.46875,285219.1875,255536.859375,221244.8125,245012.59375,0.01611328125,0.989990234375,0.0673828125,-0.2441406100988388,-1.7089842557907104,-0.8239745497703552,73.33333587646484,205665.0,1.0
14955.0755481,294782.34375,294796.46875,325837.5,318971.5625,285071.5625,255470.078125,221178.484375,244998.5625,0.015869140625,0.988525390625,0.067138671875,-0.3356933295726776,-1.8310545682907104,-0.8239745497703552,73.33333587646484,205666.0,1.0
14955.0755536,294789.84375,294581.96875,325710.53125,319003.5625,284973.5,255433.609375,221151.65625,245006.515625,0.01416015625,0.988525390625,0.0693359375,-0.3967284858226776,-1.8920897245407104,-0.7324218153953552,73.33333587646484,205667.0,1.0
14955.0755549,294826.0625,294771.15625,325871.5625,319035.84375,285070.0625,255492.703125,221211.203125,245033.78125,0.016357421875,0.98681640625,0.067138671875,-0.4272460639476776,-2.075195074081421,-0.6103515028953552,73.33333587646484,205668.0,1.0
14955.0755561,294848.84375,295099.28125,326092.125,319030.75,285230.0,255570.21875,221279.328125,245047.1875,0.01708984375,0.989013671875,0.069580078125,-0.4882812201976776,-2.075195074081421,-0.5493163466453552,73.33333587646484,205669.0,1.0
14955.0755574,294823.1875,295123.96875,326084.15625,318993.65625,285238.65625,255556.0,221261.71875,245026.1875,0.0166015625,0.989013671875,0.068603515625,-0.3967284858226776,-2.166747808456421,-0.3662109076976776,73.33333587646484,205670.0,1.0
14955.0755586,294785.90625,294798.15625,325842.3125,318976.21875,285076.125,255475.625,221183.578125,245007.859375,0.0166015625,0.98828125,0.063232421875,-0.3967284858226776,-2.166747808456421,-0.4272460639476776,73.33333587646484,205671.0,1.0
14955.0755599,294792.4375,294570.0625,325695.34375,319007.96875,284965.625,255442.1875,221153.71875,245020.546875,0.017822265625,0.98828125,0.06591796875,-0.3967284858226776,-2.166747808456421,-0.4272460639476776,73.33333587646484,205672.0,1.0
14955.0755611,294832.5625,294770.4375,325860.65625,319042.8125,285067.625,255503.515625,221218.0,245043.4375,0.01904296875,0.989501953125,0.06982421875,-0.3967284858226776,-2.105712652206421,-0.3051757514476776,73.33333587646484,205673.0,1.0
14955.0755624,294839.28125,295083.1875,326070.46875,319022.875,285209.4375,255543.84375,221264.75,245039.140625,0.020751953125,0.986083984375,0.067138671875,-0.3967284858226776,-2.166747808456421,-0.3662109076976776,73.33333587646484,205674.0,1.0
14955.0777669,294809.40625,295097.59375,326050.53125,318980.0625,285207.1875,255520.234375,221237.046875,245013.671875,0.02001953125,0.985595703125,0.06640625,-0.4272460639476776,-2.166747808456421,-0.4577636420726776,73.33333587646484,205675.0,1.0
14955.1065465,294773.9375,294777.78125,325812.09375,318961.90625,285051.28125,255457.5625,221167.296875,244999.71875,0.021728515625,0.983642578125,0.0693359375,-0.3051757514476776,-2.105712652206421,-0.3662109076976776,73.33333587646484,205676.0,1.0
14955.1103988,294779.90625,294562.75,325678.6875,318991.9375,284952.65625,255431.09375,221148.703125,245010.984375,0.0244140625,0.98291015625,0.0654296875,-0.1831054538488388,-2.105712652206421,-0.4577636420726776,73.33333587646484,205677.0,1.0
14955.1104042,294821.40625,294771.59375,325861.28125,319030.75,285064.78125,255480.09375,221209.140625,245035.296875,0.02685546875,0.983154296875,0.061279296875,-0.1220703050494194,-2.075195074081421,-0.5493163466453552,73.33333587646484,205678.0,1.0
14955.1104056,294836.40625,295090.96875,326085.0625,319022.09375,285220.34375,255544.203125,221270.03125,245042.453125,0.02685546875,0.9833984375,0.0615234375,0.03051757626235485,-2.014159917831421,-0.5798339247703552,73.33333587646484,205679.0,1.0
14955.1104068,294811.84375,295106.875,326066.1875,318985.875,285225.34375,255540.4375,221257.515625,245027.703125,0.028564453125,0.986328125,0.067138671875,0.2746581733226776,-1.8615721464157104,-0.7019042372703552,73.33333587646484,205680.0,1.0
14955.1104081,294777.9375,294791.71875,325835.4375,318968.625,285071.125,255466.0625,221180.09375,245004.453125,0.029541015625,0.98779296875,0.06787109375,0.3356933295726776,-1.7089842557907104,-0.8544921278953552,73.33333587646484,205681.0,1.0
14955.1127662,294785.5625,294572.125,325702.46875,318998.21875,284967.5,255435.84375,221150.9375,245013.671875,0.030029296875,0.9873046875,0.0654296875,0.2441406100988388,-1.5563963651657104,-0.8850097060203552,73.33333587646484,205682.0,1.0
14955.1152821,294823.53125,294760.78125,325858.40625,319029.9375,285058.4375,255483.765625,221202.625,245032.4375,0.028564453125,0.9873046875,0.065185546875,0.3356933295726776,-1.3427733182907104,-1.0375975370407104,73.33333587646484,205683.0,1.0
14955.1177913,294834.53125,295067.0,326053.75,319014.21875,285194.6875,255539.1875,221257.515625,245034.046875,0.030517578125,0.986083984375,0.068359375,0.5187987685203552,-1.1596678495407104,-1.0986326932907104,73.33333587646484,205684.0,1.0
14955.1208656,294804.6875,295087.125,326032.21875,318974.0625,285196.90625,255531.234375,221242.046875,245014.734375,0.03076171875,0.986572265625,0.064697265625,0.6103515028953552,-1.0986326932907104,-1.1901854276657104,73.33333587646484,205685.0,1.0
14955.1208706,294776.875,294778.5625,325814.25,318967.09375,285056.375,255476.515625,221184.46875,245007.140625,0.03173828125,0.98779296875,0.065673828125,0.6713866591453552,-0.7934569716453552,-1.2512205839157104,73.33333587646484,205686.0,1.0
14955.1245225,294773.375,294551.21875,325671.46875,318989.90625,284946.3125,255431.359375,221148.53125,245009.90625,0.028076171875,0.986572265625,0.065673828125,0.7629393935203552,-0.5187987685203552,-1.3732908964157104,73.33333587646484,205687.0,1.0
14955.1245277,294805.21875,294743.34375,325831.5,319017.875,285040.28125,255467.484375,221195.375,245028.15625,0.029296875,0.98828125,0.06884765625,0.9765624403953552,-0.3967284858226776,-1.4648436307907104,73.33333587646484,205688.0,1.0
14955.124529,294818.09375,295066.71875,326057.96875,319002.875,285197.0,255528.828125,221253.578125,245024.84375,0.02587890625,0.98876953125,0.06982421875,1.0681151151657104,-0.3356933295726776,-1.4648436307907104,73.33333587646484,205689.0,1.0
14955.1245302,294792.0625,295083.375,326040.96875,318964.40625,285200.5,255522.46875,221237.21875,245004.546875,0.026123046875,0.99072265625,0.069580078125,1.0986326932907104,-0.1525878757238388,-1.5869139432907104,73.33333587646484,205690.0,1.0
14955.1273201,294770.625,294778.5625,325821.75,318962.8125,285060.21875,255464.171875,221175.265625,244999.1875,0.022705078125,0.991455078125,0.0712890625,1.0681151151657104,-0.03051757626235485,-1.5563963651657104,73.33333587646484,205691.0,1.0
14955.1273236,294789.65625,294571.78125,325704.8125,319002.875,284971.625,255439.765625,221163.546875,245019.484375,0.021484375,0.992431640625,0.0693359375,1.0681151151657104,-0.1220703050494194,-1.6784666776657104,73.33333587646484,205692.0,1.0
14955.1273249,294832.5,294770.875,325875.21875,319039.4375,285073.71875,255499.3125,221228.453125,245045.21875,0.0205078125,0.9921875,0.06884765625,1.0986326932907104,0.0,-1.6479490995407104,73.33333587646484,205693.0,1.0
14955.1291535,294852.25,295096.59375,326099.8125,319034.59375,285232.21875,255569.859375,221292.5625,245058.71875,0.018310546875,0.990478515625,0.068359375,1.1901854276657104,0.0,-1.7089842557907104,73.33333587646484,205694.0,1.0
14955.1291578,294852.25,295096.59375,326099.8125,319034.59375,285232.21875,255569.859375,221292.5625,245058.71875,0.018310546875,0.990478515625,0.068359375,1.1901854276657104,0.0,-1.7089842557907104,73.33333587646484,205695.0,0.0
14955.129158,294852.25,295096.59375,326099.8125,319034.59375,285232.21875,255569.859375,221292.5625,245058.71875,0.018310546875,0.990478515625,0.068359375,1.1901854276657104,0.0,-1.7089842557907104,73.33333587646484,205696.0,0.0
14955.1291582,294852.25,295096.59375,326099.8125,319034.59375,285232.21875,255569.859375,221292.5625,245058.71875,0.018310546875,0.990478515625,0.068359375,1.1901854276657104,0.0,-1.7089842557907104,73.33333587646484,205697.0,0.0
14955.1291584,294852.25,295096.59375,326099.8125,319034.59375,285232.21875,255569.859375,221292.5625,245058.71875,0.018310546875,0.990478515625,0.068359375,1.1901854276657104,0.0,-1.7089842557907104,73.33333587646484,205698.0,0.0
14955.1291586,294852.25,295096.59375,326099.8125,319034.59375,285232.21875,255569.859375,221292.5625,245058.71875,0.018310546875,0.990478515625,0.068359375,1.1901854276657104,0.0,-1.7089842557907104,73.33333587646484,205699.0,0.0
14955.1291588,294852.25,295096.59375,326099.8125,319034.59375,285232.21875,255569.859375,221292.5625,245058.71875,0.018310546875,0.990478515625,0.068359375,1.1901854276657104,0.0,-1.7089842557907104,73.33333587646484,205700.0,0.0
14955.129159,294852.25,295096.59375,326099.8125,319034.59375,285232.21875,255569.859375,221292.5625,245058.71875,0.018310546875,0.990478515625,0.068359375,1.1901854276657104,0.0,-1.7089842557907104,73.33333587646484,205701.0,0.0
